# %ECSV 0.9
# ---
# datatype:
# - {name: 'Wave[nm]', datatype: float64}
# - {name: 'Effic[%]', datatype: float64}
# meta: !!omap
# - comments: [Dummy file]
Wave[nm] Effic[%]
1150.0 0.85
1150.093 0.85
1150.186 0.85
1150.279 0.85
1150.372 0.85
1150.465 0.85
1150.558 0.85
1150.651 0.85
1150.744 0.85
1150.837 0.85
1150.93 0.85
1151.023 0.85
1151.116 0.85
1151.209 0.85
1151.302 0.85
1151.395 0.85
1151.488 0.85
1151.581 0.85
1151.674 0.85
1151.767 0.85
1151.86 0.85
1151.953 0.85
1152.046 0.85
1152.139 0.85
1152.232 0.85
1152.325 0.85
1152.418 0.85
1152.511 0.85
1152.604 0.85
1152.697 0.85
1152.79 0.85
1152.883 0.85
1152.976 0.85
1153.069 0.85
1153.162 0.85
1153.255 0.85
1153.348 0.85
1153.441 0.85
1153.534 0.85
1153.627 0.85
1153.72 0.85
1153.813 0.85
1153.906 0.85
1153.999 0.85
1154.092 0.85
1154.185 0.85
1154.278 0.85
1154.371 0.85
1154.464 0.85
1154.557 0.85
1154.65 0.85
1154.743 0.85
1154.836 0.85
1154.929 0.85
1155.022 0.85
1155.115 0.85
1155.208 0.85
1155.301 0.85
1155.394 0.85
1155.487 0.85
1155.58 0.85
1155.673 0.85
1155.766 0.85
1155.859 0.85
1155.952 0.85
1156.045 0.85
1156.138 0.85
1156.231 0.85
1156.324 0.85
1156.417 0.85
1156.51 0.85
1156.603 0.85
1156.696 0.85
1156.789 0.85
1156.882 0.85
1156.975 0.85
1157.068 0.85
1157.161 0.85
1157.254 0.85
1157.347 0.85
1157.44 0.85
1157.533 0.85
1157.626 0.85
1157.719 0.85
1157.812 0.85
1157.905 0.85
1157.998 0.85
1158.091 0.85
1158.184 0.85
1158.277 0.85
1158.37 0.85
1158.463 0.85
1158.556 0.85
1158.649 0.85
1158.742 0.85
1158.835 0.85
1158.928 0.85
1159.021 0.85
1159.114 0.85
1159.207 0.85
1159.3 0.85
1159.393 0.85
1159.486 0.85
1159.579 0.85
1159.672 0.85
1159.765 0.85
1159.858 0.85
1159.951 0.85
1160.044 0.85
1160.137 0.85
1160.23 0.85
1160.323 0.85
1160.416 0.85
1160.509 0.85
1160.602 0.85
1160.695 0.85
1160.788 0.85
1160.881 0.85
1160.974 0.85
1161.067 0.85
1161.16 0.85
1161.253 0.85
1161.346 0.85
1161.439 0.85
1161.532 0.85
1161.625 0.85
1161.718 0.85
1161.811 0.85
1161.904 0.85
1161.997 0.85
1162.09 0.85
1162.183 0.85
1162.276 0.85
1162.369 0.85
1162.462 0.85
1162.555 0.85
1162.648 0.85
1162.741 0.85
1162.834 0.85
1162.927 0.85
1163.02 0.85
1163.113 0.85
1163.206 0.85
1163.299 0.85
1163.392 0.85
1163.485 0.85
1163.578 0.85
1163.671 0.85
1163.764 0.85
1163.857 0.85
1163.95 0.85
1164.043 0.85
1164.136 0.85
1164.229 0.85
1164.322 0.85
1164.415 0.85
1164.508 0.85
1164.601 0.85
1164.694 0.85
1164.787 0.85
1164.88 0.85
1164.973 0.85
1165.066 0.85
1165.159 0.85
1165.252 0.85
1165.345 0.85
1165.438 0.85
1165.531 0.85
1165.624 0.85
1165.717 0.85
1165.81 0.85
1165.903 0.85
1165.996 0.85
1166.089 0.85
1166.182 0.85
1166.275 0.85
1166.368 0.85
1166.461 0.85
1166.554 0.85
1166.647 0.85
1166.74 0.85
1166.833 0.85
1166.926 0.85
1167.019 0.85
1167.112 0.85
1167.205 0.85
1167.298 0.85
1167.391 0.85
1167.484 0.85
1167.577 0.85
1167.67 0.85
1167.763 0.85
1167.856 0.85
1167.949 0.85
1168.042 0.85
1168.135 0.85
1168.228 0.85
1168.321 0.85
1168.414 0.85
1168.507 0.85
1168.6 0.85
1168.693 0.85
1168.786 0.85
1168.879 0.85
1168.972 0.85
1169.065 0.85
1169.158 0.85
1169.251 0.85
1169.344 0.85
1169.437 0.85
1169.53 0.85
1169.623 0.85
1169.716 0.85
1169.809 0.85
1169.902 0.85
1169.995 0.85
1170.088 0.85
1170.181 0.85
1170.274 0.85
1170.367 0.85
1170.46 0.85
1170.553 0.85
1170.646 0.85
1170.739 0.85
1170.832 0.85
1170.925 0.85
1171.018 0.85
1171.111 0.85
1171.204 0.85
1171.297 0.85
1171.39 0.85
1171.483 0.85
1171.576 0.85
1171.669 0.85
1171.762 0.85
1171.855 0.85
1171.948 0.85
1172.041 0.85
1172.134 0.85
1172.227 0.85
1172.32 0.85
1172.413 0.85
1172.506 0.85
1172.599 0.85
1172.692 0.85
1172.785 0.85
1172.878 0.85
1172.971 0.85
1173.064 0.85
1173.157 0.85
1173.25 0.85
1173.343 0.85
1173.436 0.85
1173.529 0.85
1173.622 0.85
1173.715 0.85
1173.808 0.85
1173.901 0.85
1173.994 0.85
1174.087 0.85
1174.18 0.85
1174.273 0.85
1174.366 0.85
1174.459 0.85
1174.552 0.85
1174.645 0.85
1174.738 0.85
1174.831 0.85
1174.924 0.85
1175.017 0.85
1175.11 0.85
1175.203 0.85
1175.296 0.85
1175.389 0.85
1175.482 0.85
1175.575 0.85
1175.668 0.85
1175.761 0.85
1175.854 0.85
1175.947 0.85
1176.04 0.85
1176.133 0.85
1176.226 0.85
1176.319 0.85
1176.412 0.85
1176.505 0.85
1176.598 0.85
1176.691 0.85
1176.784 0.85
1176.877 0.85
1176.97 0.85
1177.063 0.85
1177.156 0.85
1177.249 0.85
1177.342 0.85
1177.435 0.85
1177.528 0.85
1177.621 0.85
1177.714 0.85
1177.807 0.85
1177.9 0.85
1177.993 0.85
1178.086 0.85
1178.179 0.85
1178.272 0.85
1178.365 0.85
1178.458 0.85
1178.551 0.85
1178.644 0.85
1178.737 0.85
1178.83 0.85
1178.923 0.85
1179.016 0.85
1179.109 0.85
1179.202 0.85
1179.295 0.85
1179.388 0.85
1179.481 0.85
1179.574 0.85
1179.667 0.85
1179.76 0.85
1179.853 0.85
1179.946 0.85
1180.039 0.85
1180.132 0.85
1180.225 0.85
1180.318 0.85
1180.411 0.85
1180.504 0.85
1180.597 0.85
1180.69 0.85
1180.783 0.85
1180.876 0.85
1180.969 0.85
1181.062 0.85
1181.155 0.85
1181.248 0.85
1181.341 0.85
1181.434 0.85
1181.527 0.85
1181.62 0.85
1181.713 0.85
1181.806 0.85
1181.899 0.85
1181.992 0.85
1182.085 0.85
1182.178 0.85
1182.271 0.85
1182.364 0.85
1182.457 0.85
1182.55 0.85
1182.643 0.85
1182.736 0.85
1182.829 0.85
1182.922 0.85
1183.015 0.85
1183.108 0.85
1183.201 0.85
1183.294 0.85
1183.387 0.85
1183.48 0.85
1183.573 0.85
1183.666 0.85
1183.759 0.85
1183.852 0.85
1183.945 0.85
1184.038 0.85
1184.131 0.85
1184.224 0.85
1184.317 0.85
1184.41 0.85
1184.503 0.85
1184.596 0.85
1184.689 0.85
1184.782 0.85
1184.875 0.85
1184.968 0.85
1185.061 0.85
1185.154 0.85
1185.247 0.85
1185.34 0.85
1185.433 0.85
1185.526 0.85
1185.619 0.85
1185.712 0.85
1185.805 0.85
1185.898 0.85
1185.991 0.85
1186.084 0.85
1186.177 0.85
1186.27 0.85
1186.363 0.85
1186.456 0.85
1186.549 0.85
1186.642 0.85
1186.735 0.85
1186.828 0.85
1186.921 0.85
1187.014 0.85
1187.107 0.85
1187.2 0.85
1187.293 0.85
1187.386 0.85
1187.479 0.85
1187.572 0.85
1187.665 0.85
1187.758 0.85
1187.851 0.85
1187.944 0.85
1188.037 0.85
1188.13 0.85
1188.223 0.85
1188.316 0.85
1188.409 0.85
1188.502 0.85
1188.595 0.85
1188.688 0.85
1188.781 0.85
1188.874 0.85
1188.967 0.85
1189.06 0.85
1189.153 0.85
1189.246 0.85
1189.339 0.85
1189.432 0.85
1189.525 0.85
1189.618 0.85
1189.711 0.85
1189.804 0.85
1189.897 0.85
1189.99 0.85
1190.083 0.85
1190.176 0.85
1190.269 0.85
1190.362 0.85
1190.455 0.85
1190.548 0.85
1190.641 0.85
1190.734 0.85
1190.827 0.85
1190.92 0.85
1191.013 0.85
1191.106 0.85
1191.199 0.85
1191.292 0.85
1191.385 0.85
1191.478 0.85
1191.571 0.85
1191.664 0.85
1191.757 0.85
1191.85 0.85
1191.943 0.85
1192.036 0.85
1192.129 0.85
1192.222 0.85
1192.315 0.85
1192.408 0.85
1192.501 0.85
1192.594 0.85
1192.687 0.85
1192.78 0.85
1192.873 0.85
1192.966 0.85
1193.059 0.85
1193.152 0.85
1193.245 0.85
1193.338 0.85
1193.431 0.85
1193.524 0.85
1193.617 0.85
1193.71 0.85
1193.803 0.85
1193.896 0.85
1193.989 0.85
1194.082 0.85
1194.175 0.85
1194.268 0.85
1194.361 0.85
1194.454 0.85
1194.547 0.85
1194.64 0.85
1194.733 0.85
1194.826 0.85
1194.919 0.85
1195.012 0.85
1195.105 0.85
1195.198 0.85
1195.291 0.85
1195.384 0.85
1195.477 0.85
1195.57 0.85
1195.663 0.85
1195.756 0.85
1195.849 0.85
1195.942 0.85
1196.035 0.85
1196.128 0.85
1196.221 0.85
1196.314 0.85
1196.407 0.85
1196.5 0.85
1196.593 0.85
1196.686 0.85
1196.779 0.85
1196.872 0.85
1196.965 0.85
1197.058 0.85
1197.151 0.85
1197.244 0.85
1197.337 0.85
1197.43 0.85
1197.523 0.85
1197.616 0.85
1197.709 0.85
1197.802 0.85
1197.895 0.85
1197.988 0.85
1198.081 0.85
1198.174 0.85
1198.267 0.85
1198.36 0.85
1198.453 0.85
1198.546 0.85
1198.639 0.85
1198.732 0.85
1198.825 0.85
1198.918 0.85
1199.011 0.85
1199.104 0.85
1199.197 0.85
1199.29 0.85
1199.383 0.85
1199.476 0.85
1199.569 0.85
1199.662 0.85
1199.755 0.85
1199.848 0.85
1199.941 0.85
1200.034 0.85
1200.127 0.85
1200.22 0.85
1200.313 0.85
1200.406 0.85
1200.499 0.85
1200.592 0.85
1200.685 0.85
1200.778 0.85
1200.871 0.85
1200.964 0.85
1201.057 0.85
1201.15 0.85
1201.243 0.85
1201.336 0.85
1201.429 0.85
1201.522 0.85
1201.615 0.85
1201.708 0.85
1201.801 0.85
1201.894 0.85
1201.987 0.85
1202.08 0.85
1202.173 0.85
1202.266 0.85
1202.359 0.85
1202.452 0.85
1202.545 0.85
1202.638 0.85
1202.731 0.85
1202.824 0.85
1202.917 0.85
1203.01 0.85
1203.103 0.85
1203.196 0.85
1203.289 0.85
1203.382 0.85
1203.475 0.85
1203.568 0.85
1203.661 0.85
1203.754 0.85
1203.847 0.85
1203.94 0.85
1204.033 0.85
1204.126 0.85
1204.219 0.85
1204.312 0.85
1204.405 0.85
1204.498 0.85
1204.591 0.85
1204.684 0.85
1204.777 0.85
1204.87 0.85
1204.963 0.85
1205.056 0.85
1205.149 0.85
1205.242 0.85
1205.335 0.85
1205.428 0.85
1205.521 0.85
1205.614 0.85
1205.707 0.85
1205.8 0.85
1205.893 0.85
1205.986 0.85
1206.079 0.85
1206.172 0.85
1206.265 0.85
1206.358 0.85
1206.451 0.85
1206.544 0.85
1206.637 0.85
1206.73 0.85
1206.823 0.85
1206.916 0.85
1207.009 0.85
1207.102 0.85
1207.195 0.85
1207.288 0.85
1207.381 0.85
1207.474 0.85
1207.567 0.85
1207.66 0.85
1207.753 0.85
1207.846 0.85
1207.939 0.85
1208.032 0.85
1208.125 0.85
1208.218 0.85
1208.311 0.85
1208.404 0.85
1208.497 0.85
1208.59 0.85
1208.683 0.85
1208.776 0.85
1208.869 0.85
1208.962 0.85
1209.055 0.85
1209.148 0.85
1209.241 0.85
1209.334 0.85
1209.427 0.85
1209.52 0.85
1209.613 0.85
1209.706 0.85
1209.799 0.85
1209.892 0.85
1209.985 0.85
1210.078 0.85
1210.171 0.85
1210.264 0.85
1210.357 0.85
1210.45 0.85
1210.543 0.85
1210.636 0.85
1210.729 0.85
1210.822 0.85
1210.915 0.85
1211.008 0.85
1211.101 0.85
1211.194 0.85
1211.287 0.85
1211.38 0.85
1211.473 0.85
1211.566 0.85
1211.659 0.85
1211.752 0.85
1211.845 0.85
1211.938 0.85
1212.031 0.85
1212.124 0.85
1212.217 0.85
1212.31 0.85
1212.403 0.85
1212.496 0.85
1212.589 0.85
1212.682 0.85
1212.775 0.85
1212.868 0.85
1212.961 0.85
1213.054 0.85
1213.147 0.85
1213.24 0.85
1213.333 0.85
1213.426 0.85
1213.519 0.85
1213.612 0.85
1213.705 0.85
1213.798 0.85
1213.891 0.85
1213.984 0.85
1214.077 0.85
1214.17 0.85
1214.263 0.85
1214.356 0.85
1214.449 0.85
1214.542 0.85
1214.635 0.85
1214.728 0.85
1214.821 0.85
1214.914 0.85
1215.007 0.85
1215.1 0.85
1215.193 0.85
1215.286 0.85
1215.379 0.85
1215.472 0.85
1215.565 0.85
1215.658 0.85
1215.751 0.85
1215.844 0.85
1215.937 0.85
1216.03 0.85
1216.123 0.85
1216.216 0.85
1216.309 0.85
1216.402 0.85
1216.495 0.85
1216.588 0.85
1216.681 0.85
1216.774 0.85
1216.867 0.85
1216.96 0.85
1217.053 0.85
1217.146 0.85
1217.239 0.85
1217.332 0.85
1217.425 0.85
1217.518 0.85
1217.611 0.85
1217.704 0.85
1217.797 0.85
1217.89 0.85
1217.983 0.85
1218.076 0.85
1218.169 0.85
1218.262 0.85
1218.355 0.85
1218.448 0.85
1218.541 0.85
1218.634 0.85
1218.727 0.85
1218.82 0.85
1218.913 0.85
1219.006 0.85
1219.099 0.85
1219.192 0.85
1219.285 0.85
1219.378 0.85
1219.471 0.85
1219.564 0.85
1219.657 0.85
1219.75 0.85
1219.843 0.85
1219.936 0.85
1220.029 0.85
1220.122 0.85
1220.215 0.85
1220.308 0.85
1220.401 0.85
1220.494 0.85
1220.587 0.85
1220.68 0.85
1220.773 0.85
1220.866 0.85
1220.959 0.85
1221.052 0.85
1221.145 0.85
1221.238 0.85
1221.331 0.85
1221.424 0.85
1221.517 0.85
1221.61 0.85
1221.703 0.85
1221.796 0.85
1221.889 0.85
1221.982 0.85
1222.075 0.85
1222.168 0.85
1222.261 0.85
1222.354 0.85
1222.447 0.85
1222.54 0.85
1222.633 0.85
1222.726 0.85
1222.819 0.85
1222.912 0.85
1223.005 0.85
1223.098 0.85
1223.191 0.85
1223.284 0.85
1223.377 0.85
1223.47 0.85
1223.563 0.85
1223.656 0.85
1223.749 0.85
1223.842 0.85
1223.935 0.85
1224.028 0.85
1224.121 0.85
1224.214 0.85
1224.307 0.85
1224.4 0.85
1224.493 0.85
1224.586 0.85
1224.679 0.85
1224.772 0.85
1224.865 0.85
1224.958 0.85
1225.051 0.85
1225.144 0.85
1225.237 0.85
1225.33 0.85
1225.423 0.85
1225.516 0.85
1225.609 0.85
1225.702 0.85
1225.795 0.85
1225.888 0.85
1225.981 0.85
1226.074 0.85
1226.167 0.85
1226.26 0.85
1226.353 0.85
1226.446 0.85
1226.539 0.85
1226.632 0.85
1226.725 0.85
1226.818 0.85
1226.911 0.85
1227.004 0.85
1227.097 0.85
1227.19 0.85
1227.283 0.85
1227.376 0.85
1227.469 0.85
1227.562 0.85
1227.655 0.85
1227.748 0.85
1227.841 0.85
1227.934 0.85
1228.027 0.85
1228.12 0.85
1228.213 0.85
1228.306 0.85
1228.399 0.85
1228.492 0.85
1228.585 0.85
1228.678 0.85
1228.771 0.85
1228.864 0.85
1228.957 0.85
1229.05 0.85
1229.143 0.85
1229.236 0.85
1229.329 0.85
1229.422 0.85
1229.515 0.85
1229.608 0.85
1229.701 0.85
1229.794 0.85
1229.887 0.85
1229.98 0.85
1230.073 0.85
1230.166 0.85
1230.259 0.85
1230.352 0.85
1230.445 0.85
1230.538 0.85
1230.631 0.85
1230.724 0.85
1230.817 0.85
1230.91 0.85
1231.003 0.85
1231.096 0.85
1231.189 0.85
1231.282 0.85
1231.375 0.85
1231.468 0.85
1231.561 0.85
1231.654 0.85
1231.747 0.85
1231.84 0.85
1231.933 0.85
1232.026 0.85
1232.119 0.85
1232.212 0.85
1232.305 0.85
1232.398 0.85
1232.491 0.85
1232.584 0.85
1232.677 0.85
1232.77 0.85
1232.863 0.85
1232.956 0.85
1233.049 0.85
1233.142 0.85
1233.235 0.85
1233.328 0.85
1233.421 0.85
1233.514 0.85
1233.607 0.85
1233.7 0.85
1233.793 0.85
1233.886 0.85
1233.979 0.85
1234.072 0.85
1234.165 0.85
1234.258 0.85
1234.351 0.85
1234.444 0.85
1234.537 0.85
1234.63 0.85
1234.723 0.85
1234.816 0.85
1234.909 0.85
1235.002 0.85
1235.095 0.85
1235.188 0.85
1235.281 0.85
1235.374 0.85
1235.467 0.85
1235.56 0.85
1235.653 0.85
1235.746 0.85
1235.839 0.85
1235.932 0.85
1236.025 0.85
1236.118 0.85
1236.211 0.85
1236.304 0.85
1236.397 0.85
1236.49 0.85
1236.583 0.85
1236.676 0.85
1236.769 0.85
1236.862 0.85
1236.955 0.85
1237.048 0.85
1237.141 0.85
1237.234 0.85
1237.327 0.85
1237.42 0.85
1237.513 0.85
1237.606 0.85
1237.699 0.85
1237.792 0.85
1237.885 0.85
1237.978 0.85
1238.071 0.85
1238.164 0.85
1238.257 0.85
1238.35 0.85
1238.443 0.85
1238.536 0.85
1238.629 0.85
1238.722 0.85
1238.815 0.85
1238.908 0.85
1239.001 0.85
1239.094 0.85
1239.187 0.85
1239.28 0.85
1239.373 0.85
1239.466 0.85
1239.559 0.85
1239.652 0.85
1239.745 0.85
1239.838 0.85
1239.931 0.85
1240.024 0.85
1240.117 0.85
1240.21 0.85
1240.303 0.85
1240.396 0.85
1240.489 0.85
1240.582 0.85
1240.675 0.85
1240.768 0.85
1240.861 0.85
1240.954 0.85
1241.047 0.85
1241.14 0.85
1241.233 0.85
1241.326 0.85
1241.419 0.85
1241.512 0.85
1241.605 0.85
1241.698 0.85
1241.791 0.85
1241.884 0.85
1241.977 0.85
1242.07 0.85
1242.163 0.85
1242.256 0.85
1242.349 0.85
1242.442 0.85
1242.535 0.85
1242.628 0.85
1242.721 0.85
1242.814 0.85
1242.907 0.85
1243.0 0.85
1243.093 0.85
1243.186 0.85
1243.279 0.85
1243.372 0.85
1243.465 0.85
1243.558 0.85
1243.651 0.85
1243.744 0.85
1243.837 0.85
1243.93 0.85
1244.023 0.85
1244.116 0.85
1244.209 0.85
1244.302 0.85
1244.395 0.85
1244.488 0.85
1244.581 0.85
1244.674 0.85
1244.767 0.85
1244.86 0.85
1244.953 0.85
1245.046 0.85
1245.139 0.85
1245.232 0.85
1245.325 0.85
1245.418 0.85
1245.511 0.85
1245.604 0.85
1245.697 0.85
1245.79 0.85
1245.883 0.85
1245.976 0.85
1246.069 0.85
1246.162 0.85
1246.255 0.85
1246.348 0.85
1246.441 0.85
1246.534 0.85
1246.627 0.85
1246.72 0.85
1246.813 0.85
1246.906 0.85
1246.999 0.85
1247.092 0.85
1247.185 0.85
1247.278 0.85
1247.371 0.85
1247.464 0.85
1247.557 0.85
1247.65 0.85
1247.743 0.85
1247.836 0.85
1247.929 0.85
1248.022 0.85
1248.115 0.85
1248.208 0.85
1248.301 0.85
1248.394 0.85
1248.487 0.85
1248.58 0.85
1248.673 0.85
1248.766 0.85
1248.859 0.85
1248.952 0.85
1249.045 0.85
1249.138 0.85
1249.231 0.85
1249.324 0.85
1249.417 0.85
1249.51 0.85
1249.603 0.85
1249.696 0.85
1249.789 0.85
1249.882 0.85
1249.975 0.85
1250.068 0.85
1250.161 0.85
1250.254 0.85
1250.347 0.85
1250.44 0.85
1250.533 0.85
1250.626 0.85
1250.719 0.85
1250.812 0.85
1250.905 0.85
1250.998 0.85
1251.091 0.85
1251.184 0.85
1251.277 0.85
1251.37 0.85
1251.463 0.85
1251.556 0.85
1251.649 0.85
1251.742 0.85
1251.835 0.85
1251.928 0.85
1252.021 0.85
1252.114 0.85
1252.207 0.85
1252.3 0.85
1252.393 0.85
1252.486 0.85
1252.579 0.85
1252.672 0.85
1252.765 0.85
1252.858 0.85
1252.951 0.85
1253.044 0.85
1253.137 0.85
1253.23 0.85
1253.323 0.85
1253.416 0.85
1253.509 0.85
1253.602 0.85
1253.695 0.85
1253.788 0.85
1253.881 0.85
1253.974 0.85
1254.067 0.85
1254.16 0.85
1254.253 0.85
1254.346 0.85
1254.439 0.85
1254.532 0.85
1254.625 0.85
1254.718 0.85
1254.811 0.85
1254.904 0.85
1254.997 0.85
1255.09 0.85
1255.183 0.85
1255.276 0.85
1255.369 0.85
1255.462 0.85
1255.555 0.85
1255.648 0.85
1255.741 0.85
1255.834 0.85
1255.927 0.85
1256.02 0.85
1256.113 0.85
1256.206 0.85
1256.299 0.85
1256.392 0.85
1256.485 0.85
1256.578 0.85
1256.671 0.85
1256.764 0.85
1256.857 0.85
1256.95 0.85
1257.043 0.85
1257.136 0.85
1257.229 0.85
1257.322 0.85
1257.415 0.85
1257.508 0.85
1257.601 0.85
1257.694 0.85
1257.787 0.85
1257.88 0.85
1257.973 0.85
1258.066 0.85
1258.159 0.85
1258.252 0.85
1258.345 0.85
1258.438 0.85
1258.531 0.85
1258.624 0.85
1258.717 0.85
1258.81 0.85
1258.903 0.85
1258.996 0.85
1259.089 0.85
1259.182 0.85
1259.275 0.85
1259.368 0.85
1259.461 0.85
1259.554 0.85
1259.647 0.85
1259.74 0.85
1259.833 0.85
1259.926 0.85
1260.019 0.85
1260.112 0.85
1260.205 0.85
1260.298 0.85
1260.391 0.85
1260.484 0.85
1260.577 0.85
1260.67 0.85
1260.763 0.85
1260.856 0.85
1260.949 0.85
1261.042 0.85
1261.135 0.85
1261.228 0.85
1261.321 0.85
1261.414 0.85
1261.507 0.85
1261.6 0.85
1261.693 0.85
1261.786 0.85
1261.879 0.85
1261.972 0.85
1262.065 0.85
1262.158 0.85
1262.251 0.85
1262.344 0.85
1262.437 0.85
1262.53 0.85
1262.623 0.85
1262.716 0.85
1262.809 0.85
1262.902 0.85
1262.995 0.85
1263.088 0.85
1263.181 0.85
1263.274 0.85
1263.367 0.85
1263.46 0.85
1263.553 0.85
1263.646 0.85
1263.739 0.85
1263.832 0.85
1263.925 0.85
1264.018 0.85
1264.111 0.85
1264.204 0.85
1264.297 0.85
1264.39 0.85
1264.483 0.85
1264.576 0.85
1264.669 0.85
1264.762 0.85
1264.855 0.85
1264.948 0.85
1265.041 0.85
1265.134 0.85
1265.227 0.85
1265.32 0.85
1265.413 0.85
1265.506 0.85
1265.599 0.85
1265.692 0.85
1265.785 0.85
1265.878 0.85
1265.971 0.85
1266.064 0.85
1266.157 0.85
1266.25 0.85
1266.343 0.85
1266.436 0.85
1266.529 0.85
1266.622 0.85
1266.715 0.85
1266.808 0.85
1266.901 0.85
1266.994 0.85
1267.087 0.85
1267.18 0.85
1267.273 0.85
1267.366 0.85
1267.459 0.85
1267.552 0.85
1267.645 0.85
1267.738 0.85
1267.831 0.85
1267.924 0.85
1268.017 0.85
1268.11 0.85
1268.203 0.85
1268.296 0.85
1268.389 0.85
1268.482 0.85
1268.575 0.85
1268.668 0.85
1268.761 0.85
1268.854 0.85
1268.947 0.85
1269.04 0.85
1269.133 0.85
1269.226 0.85
1269.319 0.85
1269.412 0.85
1269.505 0.85
1269.598 0.85
1269.691 0.85
1269.784 0.85
1269.877 0.85
1269.97 0.85
1270.063 0.85
1270.156 0.85
1270.249 0.85
1270.342 0.85
1270.435 0.85
1270.528 0.85
1270.621 0.85
1270.714 0.85
1270.807 0.85
1270.9 0.85
1270.993 0.85
1271.086 0.85
1271.179 0.85
1271.272 0.85
1271.365 0.85
1271.458 0.85
1271.551 0.85
1271.644 0.85
1271.737 0.85
1271.83 0.85
1271.923 0.85
1272.016 0.85
1272.109 0.85
1272.202 0.85
1272.295 0.85
1272.388 0.85
1272.481 0.85
1272.574 0.85
1272.667 0.85
1272.76 0.85
1272.853 0.85
1272.946 0.85
1273.039 0.85
1273.132 0.85
1273.225 0.85
1273.318 0.85
1273.411 0.85
1273.504 0.85
1273.597 0.85
1273.69 0.85
1273.783 0.85
1273.876 0.85
1273.969 0.85
1274.062 0.85
1274.155 0.85
1274.248 0.85
1274.341 0.85
1274.434 0.85
1274.527 0.85
1274.62 0.85
1274.713 0.85
1274.806 0.85
1274.899 0.85
1274.992 0.85
1275.085 0.85
1275.178 0.85
1275.271 0.85
1275.364 0.85
1275.457 0.85
1275.55 0.85
1275.643 0.85
1275.736 0.85
1275.829 0.85
1275.922 0.85
1276.015 0.85
1276.108 0.85
1276.201 0.85
1276.294 0.85
1276.387 0.85
1276.48 0.85
1276.573 0.85
1276.666 0.85
1276.759 0.85
1276.852 0.85
1276.945 0.85
1277.038 0.85
1277.131 0.85
1277.224 0.85
1277.317 0.85
1277.41 0.85
1277.503 0.85
1277.596 0.85
1277.689 0.85
1277.782 0.85
1277.875 0.85
1277.968 0.85
1278.061 0.85
1278.154 0.85
1278.247 0.85
1278.34 0.85
1278.433 0.85
1278.526 0.85
1278.619 0.85
1278.712 0.85
1278.805 0.85
1278.898 0.85
1278.991 0.85
1279.084 0.85
1279.177 0.85
1279.27 0.85
1279.363 0.85
1279.456 0.85
1279.549 0.85
1279.642 0.85
1279.735 0.85
1279.828 0.85
1279.921 0.85
1280.014 0.85
1280.107 0.85
1280.2 0.85
1280.293 0.85
1280.386 0.85
1280.479 0.85
1280.572 0.85
1280.665 0.85
1280.758 0.85
1280.851 0.85
1280.944 0.85
1281.037 0.85
1281.13 0.85
1281.223 0.85
1281.316 0.85
1281.409 0.85
1281.502 0.85
1281.595 0.85
1281.688 0.85
1281.781 0.85
1281.874 0.85
1281.967 0.85
1282.06 0.85
1282.153 0.85
1282.246 0.85
1282.339 0.85
1282.432 0.85
1282.525 0.85
1282.618 0.85
1282.711 0.85
1282.804 0.85
1282.897 0.85
1282.99 0.85
1283.083 0.85
1283.176 0.85
1283.269 0.85
1283.362 0.85
1283.455 0.85
1283.548 0.85
1283.641 0.85
1283.734 0.85
1283.827 0.85
1283.92 0.85
1284.013 0.85
1284.106 0.85
1284.199 0.85
1284.292 0.85
1284.385 0.85
1284.478 0.85
1284.571 0.85
1284.664 0.85
1284.757 0.85
1284.85 0.85
1284.943 0.85
1285.036 0.85
1285.129 0.85
1285.222 0.85
1285.315 0.85
1285.408 0.85
1285.501 0.85
1285.594 0.85
1285.687 0.85
1285.78 0.85
1285.873 0.85
1285.966 0.85
1286.059 0.85
1286.152 0.85
1286.245 0.85
1286.338 0.85
1286.431 0.85
1286.524 0.85
1286.617 0.85
1286.71 0.85
1286.803 0.85
1286.896 0.85
1286.989 0.85
1287.082 0.85
1287.175 0.85
1287.268 0.85
1287.361 0.85
1287.454 0.85
1287.547 0.85
1287.64 0.85
1287.733 0.85
1287.826 0.85
1287.919 0.85
1288.012 0.85
1288.105 0.85
1288.198 0.85
1288.291 0.85
1288.384 0.85
1288.477 0.85
1288.57 0.85
1288.663 0.85
1288.756 0.85
1288.849 0.85
1288.942 0.85
1289.035 0.85
1289.128 0.85
1289.221 0.85
1289.314 0.85
1289.407 0.85
1289.5 0.85
1289.593 0.85
1289.686 0.85
1289.779 0.85
1289.872 0.85
1289.965 0.85
1290.058 0.85
1290.151 0.85
1290.244 0.85
1290.337 0.85
1290.43 0.85
1290.523 0.85
1290.616 0.85
1290.709 0.85
1290.802 0.85
1290.895 0.85
1290.988 0.85
1291.081 0.85
1291.174 0.85
1291.267 0.85
1291.36 0.85
1291.453 0.85
1291.546 0.85
1291.639 0.85
1291.732 0.85
1291.825 0.85
1291.918 0.85
1292.011 0.85
1292.104 0.85
1292.197 0.85
1292.29 0.85
1292.383 0.85
1292.476 0.85
1292.569 0.85
1292.662 0.85
1292.755 0.85
1292.848 0.85
1292.941 0.85
1293.034 0.85
1293.127 0.85
1293.22 0.85
1293.313 0.85
1293.406 0.85
1293.499 0.85
1293.592 0.85
1293.685 0.85
1293.778 0.85
1293.871 0.85
1293.964 0.85
1294.057 0.85
1294.15 0.85
1294.243 0.85
1294.336 0.85
1294.429 0.85
1294.522 0.85
1294.615 0.85
1294.708 0.85
1294.801 0.85
1294.894 0.85
1294.987 0.85
1295.08 0.85
1295.173 0.85
1295.266 0.85
1295.359 0.85
1295.452 0.85
1295.545 0.85
1295.638 0.85
1295.731 0.85
1295.824 0.85
1295.917 0.85
1296.01 0.85
1296.103 0.85
1296.196 0.85
1296.289 0.85
1296.382 0.85
1296.475 0.85
1296.568 0.85
1296.661 0.85
1296.754 0.85
1296.847 0.85
1296.94 0.85
1297.033 0.85
1297.126 0.85
1297.219 0.85
1297.312 0.85
1297.405 0.85
1297.498 0.85
1297.591 0.85
1297.684 0.85
1297.777 0.85
1297.87 0.85
1297.963 0.85
1298.056 0.85
1298.149 0.85
1298.242 0.85
1298.335 0.85
1298.428 0.85
1298.521 0.85
1298.614 0.85
1298.707 0.85
1298.8 0.85
1298.893 0.85
1298.986 0.85
1299.079 0.85
1299.172 0.85
1299.265 0.85
1299.358 0.85
1299.451 0.85
1299.544 0.85
1299.637 0.85
1299.73 0.85
1299.823 0.85
1299.916 0.85
1300.009 0.85
1300.102 0.85
1300.195 0.85
1300.288 0.85
1300.381 0.85
1300.474 0.85
1300.567 0.85
1300.66 0.85
1300.753 0.85
1300.846 0.85
1300.939 0.85
1301.032 0.85
1301.125 0.85
1301.218 0.85
1301.311 0.85
1301.404 0.85
1301.497 0.85
1301.59 0.85
1301.683 0.85
1301.776 0.85
1301.869 0.85
1301.962 0.85
1302.055 0.85
1302.148 0.85
1302.241 0.85
1302.334 0.85
1302.427 0.85
1302.52 0.85
1302.613 0.85
1302.706 0.85
1302.799 0.85
1302.892 0.85
1302.985 0.85
1303.078 0.85
1303.171 0.85
1303.264 0.85
1303.357 0.85
1303.45 0.85
1303.543 0.85
1303.636 0.85
1303.729 0.85
1303.822 0.85
1303.915 0.85
1304.008 0.85
1304.101 0.85
1304.194 0.85
1304.287 0.85
1304.38 0.85
1304.473 0.85
1304.566 0.85
1304.659 0.85
1304.752 0.85
1304.845 0.85
1304.938 0.85
1305.031 0.85
1305.124 0.85
1305.217 0.85
1305.31 0.85
1305.403 0.85
1305.496 0.85
1305.589 0.85
1305.682 0.85
1305.775 0.85
1305.868 0.85
1305.961 0.85
1306.054 0.85
1306.147 0.85
1306.24 0.85
1306.333 0.85
1306.426 0.85
1306.519 0.85
1306.612 0.85
1306.705 0.85
1306.798 0.85
1306.891 0.85
1306.984 0.85
1307.077 0.85
1307.17 0.85
1307.263 0.85
1307.356 0.85
1307.449 0.85
1307.542 0.85
1307.635 0.85
1307.728 0.85
1307.821 0.85
1307.914 0.85
1308.007 0.85
1308.1 0.85
1308.193 0.85
1308.286 0.85
1308.379 0.85
1308.472 0.85
1308.565 0.85
1308.658 0.85
1308.751 0.85
1308.844 0.85
1308.937 0.85
1309.03 0.85
1309.123 0.85
1309.216 0.85
1309.309 0.85
1309.402 0.85
1309.495 0.85
1309.588 0.85
1309.681 0.85
1309.774 0.85
1309.867 0.85
1309.96 0.85
1310.053 0.85
1310.146 0.85
1310.239 0.85
1310.332 0.85
1310.425 0.85
1310.518 0.85
1310.611 0.85
1310.704 0.85
1310.797 0.85
1310.89 0.85
1310.983 0.85
1311.076 0.85
1311.169 0.85
1311.262 0.85
1311.355 0.85
1311.448 0.85
1311.541 0.85
1311.634 0.85
1311.727 0.85
1311.82 0.85
1311.913 0.85
1312.006 0.85
1312.099 0.85
1312.192 0.85
1312.285 0.85
1312.378 0.85
1312.471 0.85
1312.564 0.85
1312.657 0.85
1312.75 0.85
1312.843 0.85
1312.936 0.85
1313.029 0.85
1313.122 0.85
1313.215 0.85
1313.308 0.85
1313.401 0.85
1313.494 0.85
1313.587 0.85
1313.68 0.85
1313.773 0.85
1313.866 0.85
1313.959 0.85
1314.052 0.85
1314.145 0.85
1314.238 0.85
1314.331 0.85
1314.424 0.85
1314.517 0.85
1314.61 0.85
1314.703 0.85
1314.796 0.85
1314.889 0.85
1314.982 0.85
1315.075 0.85
1315.168 0.85
1315.261 0.85
1315.354 0.85
1315.447 0.85
1315.54 0.85
1315.633 0.85
1315.726 0.85
1315.819 0.85
1315.912 0.85
1316.005 0.85
1316.098 0.85
1316.191 0.85
1316.284 0.85
1316.377 0.85
1316.47 0.85
1316.563 0.85
1316.656 0.85
1316.749 0.85
1316.842 0.85
1316.935 0.85
1317.028 0.85
1317.121 0.85
1317.214 0.85
1317.307 0.85
1317.4 0.85
1317.493 0.85
1317.586 0.85
1317.679 0.85
1317.772 0.85
1317.865 0.85
1317.958 0.85
1318.051 0.85
1318.144 0.85
1318.237 0.85
1318.33 0.85
1318.423 0.85
1318.516 0.85
1318.609 0.85
1318.702 0.85
1318.795 0.85
1318.888 0.85
1318.981 0.85
1319.074 0.85
1319.167 0.85
1319.26 0.85
1319.353 0.85
1319.446 0.85
1319.539 0.85
1319.632 0.85
1319.725 0.85
1319.818 0.85
1319.911 0.85
1320.004 0.85
1320.097 0.85
1320.19 0.85
1320.283 0.85
1320.376 0.85
1320.469 0.85
1320.562 0.85
1320.655 0.85
1320.748 0.85
1320.841 0.85
1320.934 0.85
1321.027 0.85
1321.12 0.85
1321.213 0.85
1321.306 0.85
1321.399 0.85
1321.492 0.85
1321.585 0.85
1321.678 0.85
1321.771 0.85
1321.864 0.85
1321.957 0.85
1322.05 0.85
1322.143 0.85
1322.236 0.85
1322.329 0.85
1322.422 0.85
1322.515 0.85
1322.608 0.85
1322.701 0.85
1322.794 0.85
1322.887 0.85
1322.98 0.85
1323.073 0.85
1323.166 0.85
1323.259 0.85
1323.352 0.85
1323.445 0.85
1323.538 0.85
1323.631 0.85
1323.724 0.85
1323.817 0.85
1323.91 0.85
1324.003 0.85
1324.096 0.85
1324.189 0.85
1324.282 0.85
1324.375 0.85
1324.468 0.85
1324.561 0.85
1324.654 0.85
1324.747 0.85
1324.84 0.85
1324.933 0.85
1325.026 0.85
1325.119 0.85
1325.212 0.85
1325.305 0.85
1325.398 0.85
1325.491 0.85
1325.584 0.85
1325.677 0.85
1325.77 0.85
1325.863 0.85
1325.956 0.85
1326.049 0.85
1326.142 0.85
1326.235 0.85
1326.328 0.85
1326.421 0.85
1326.514 0.85
1326.607 0.85
1326.7 0.85
1326.793 0.85
1326.886 0.85
1326.979 0.85
1327.072 0.85
1327.165 0.85
1327.258 0.85
1327.351 0.85
1327.444 0.85
1327.537 0.85
1327.63 0.85
1327.723 0.85
1327.816 0.85
1327.909 0.85
1328.002 0.85
1328.095 0.85
1328.188 0.85
1328.281 0.85
1328.374 0.85
1328.467 0.85
1328.56 0.85
1328.653 0.85
1328.746 0.85
1328.839 0.85
1328.932 0.85
1329.025 0.85
1329.118 0.85
1329.211 0.85
1329.304 0.85
1329.397 0.85
1329.49 0.85
1329.583 0.85
1329.676 0.85
1329.769 0.85
1329.862 0.85
1329.955 0.85
1330.048 0.85
1330.141 0.85
1330.234 0.85
1330.327 0.85
1330.42 0.85
1330.513 0.85
1330.606 0.85
1330.699 0.85
1330.792 0.85
1330.885 0.85
1330.978 0.85
1331.071 0.85
1331.164 0.85
1331.257 0.85
1331.35 0.85
1331.443 0.85
1331.536 0.85
1331.629 0.85
1331.722 0.85
1331.815 0.85
1331.908 0.85
1332.001 0.85
1332.094 0.85
1332.187 0.85
1332.28 0.85
1332.373 0.85
1332.466 0.85
1332.559 0.85
1332.652 0.85
1332.745 0.85
1332.838 0.85
1332.931 0.85
1333.024 0.85
1333.117 0.85
1333.21 0.85
1333.303 0.85
1333.396 0.85
1333.489 0.85
1333.582 0.85
1333.675 0.85
1333.768 0.85
1333.861 0.85
1333.954 0.85
1334.047 0.85
1334.14 0.85
1334.233 0.85
1334.326 0.85
1334.419 0.85
1334.512 0.85
1334.605 0.85
1334.698 0.85
1334.791 0.85
1334.884 0.85
1334.977 0.85
1335.07 0.85
1335.163 0.85
1335.256 0.85
1335.349 0.85
1335.442 0.85
1335.535 0.85
1335.628 0.85
1335.721 0.85
1335.814 0.85
1335.907 0.85
1336.0 0.85
1336.093 0.85
1336.186 0.85
1336.279 0.85
1336.372 0.85
1336.465 0.85
1336.558 0.85
1336.651 0.85
1336.744 0.85
1336.837 0.85
1336.93 0.85
1337.023 0.85
1337.116 0.85
1337.209 0.85
1337.302 0.85
1337.395 0.85
1337.488 0.85
1337.581 0.85
1337.674 0.85
1337.767 0.85
1337.86 0.85
1337.953 0.85
1338.046 0.85
1338.139 0.85
1338.232 0.85
1338.325 0.85
1338.418 0.85
1338.511 0.85
1338.604 0.85
1338.697 0.85
1338.79 0.85
1338.883 0.85
1338.976 0.85
1339.069 0.85
1339.162 0.85
1339.255 0.85
1339.348 0.85
1339.441 0.85
1339.534 0.85
1339.627 0.85
1339.72 0.85
1339.813 0.85
1339.906 0.85
1339.999 0.85
1340.092 0.85
1340.185 0.85
1340.278 0.85
1340.371 0.85
1340.464 0.85
1340.557 0.85
1340.65 0.85
1340.743 0.85
1340.836 0.85
1340.929 0.85
1341.022 0.85
1341.115 0.85
1341.208 0.85
1341.301 0.85
1341.394 0.85
1341.487 0.85
1341.58 0.85
1341.673 0.85
1341.766 0.85
1341.859 0.85
1341.952 0.85
1342.045 0.85
1342.138 0.85
1342.231 0.85
1342.324 0.85
1342.417 0.85
1342.51 0.85
1342.603 0.85
1342.696 0.85
1342.789 0.85
1342.882 0.85
1342.975 0.85
1343.068 0.85
1343.161 0.85
1343.254 0.85
1343.347 0.85
1343.44 0.85
1343.533 0.85
1343.626 0.85
1343.719 0.85
1343.812 0.85
1343.905 0.85
1343.998 0.85
1344.091 0.85
1344.184 0.85
1344.277 0.85
1344.37 0.85
1344.463 0.85
1344.556 0.85
1344.649 0.85
1344.742 0.85
1344.835 0.85
1344.928 0.85
1345.021 0.85
1345.114 0.85
1345.207 0.85
1345.3 0.85
1345.393 0.85
1345.486 0.85
1345.579 0.85
1345.672 0.85
1345.765 0.85
1345.858 0.85
1345.951 0.85
1346.044 0.85
1346.137 0.85
1346.23 0.85
1346.323 0.85
1346.416 0.85
1346.509 0.85
1346.602 0.85
1346.695 0.85
1346.788 0.85
1346.881 0.85
1346.974 0.85
1347.067 0.85
1347.16 0.85
1347.253 0.85
1347.346 0.85
1347.439 0.85
1347.532 0.85
1347.625 0.85
1347.718 0.85
1347.811 0.85
1347.904 0.85
1347.997 0.85
1348.09 0.85
1348.183 0.85
1348.276 0.85
1348.369 0.85
1348.462 0.85
1348.555 0.85
1348.648 0.85
1348.741 0.85
1348.834 0.85
1348.927 0.85
1349.02 0.85
1349.113 0.85
1349.206 0.85
1349.299 0.85
1349.392 0.85
1349.485 0.85
1349.578 0.85
1349.671 0.85
1349.764 0.85
1349.857 0.85
1349.95 0.85
