# Obtained using Skycalc tool from ESO webpage
# Water vapour content 2.5 mm
Wave[nm] Transmission[no-units]
800 0.962677
800.4001 0.961454
800.8004 0.959551
801.2009 0.965106
801.601601 0.960366
802.002502 0.964796
802.403604 0.961348
802.804906 0.96272
803.206409 0.962755
803.608112 0.962856
804.010017 0.962834
804.412122 0.963192
804.814429 0.963082
805.216937 0.966248
805.619646 0.964829
806.022556 0.965603
806.425668 0.964909
806.828982 0.9659
807.232497 0.964542
807.636215 0.966072
808.040134 0.965285
808.444255 0.965686
808.848578 0.963383
809.253103 0.96465
809.657831 0.96389
810.062761 0.962725
810.467894 0.964309
810.873229 0.961864
811.278767 0.961476
811.684508 0.959373
812.090452 0.961482
812.496598 0.957492
812.902948 0.959826
813.309501 0.952044
813.716258 0.928818
814.123218 0.947341
814.530381 0.942173
814.937748 0.934182
815.345319 0.934322
815.753093 0.928216
816.161072 0.932383
816.569255 0.863155
816.977641 0.937845
817.386232 0.929573
817.795028 0.919091
818.204027 0.910455
818.613232 0.949821
819.022641 0.903966
819.432254 0.933366
819.842073 0.928348
820.252096 0.939164
820.662325 0.965455
821.072759 0.961464
821.483398 0.955191
821.894242 0.949231
822.305292 0.956159
822.716548 0.921963
823.128009 0.843243
823.539676 0.89502
823.951548 0.957409
824.363627 0.949139
824.775912 0.948525
825.188403 0.967295
825.6011 0.958857
826.014004 0.921944
826.427115 0.955075
826.840431 0.967315
827.253955 0.953099
827.667685 0.930857
828.081623 0.934042
828.495767 0.937609
828.910119 0.931152
829.324677 0.954997
829.739443 0.934936
830.154417 0.950653
830.569598 0.933367
830.984986 0.966712
831.400583 0.956244
831.816387 0.956159
832.232399 0.915361
832.648619 0.968501
833.065048 0.95527
833.481684 0.958588
833.898529 0.962636
834.315583 0.950897
834.732845 0.968819
835.150316 0.962977
835.567995 0.963234
835.985884 0.961123
836.403981 0.962804
836.822288 0.964794
837.240804 0.968857
837.659529 0.963044
838.078463 0.966976
838.497607 0.967795
838.916961 0.965857
839.336524 0.970087
839.756297 0.966756
840.176281 0.968769
840.596474 0.967683
841.016877 0.966398
841.437491 0.97015
841.858315 0.967392
842.279349 0.969225
842.700594 0.97054
843.12205 0.968453
843.543716 0.970146
843.965593 0.968208
844.387682 0.969531
844.809981 0.970106
845.232492 0.970287
845.655214 0.970823
846.078147 0.969691
846.501292 0.970557
846.924648 0.97104
847.348217 0.970881
847.771997 0.970778
848.195989 0.969701
848.620193 0.970959
849.044609 0.970102
849.469237 0.970285
849.894078 0.970674
850.319131 0.970704
850.744397 0.970167
851.169876 0.970991
851.595567 0.968815
852.021471 0.969692
852.447589 0.970841
852.873919 0.970785
853.300463 0.970851
853.72722 0.970377
854.15419 0.96991
854.581374 0.971385
855.008771 0.970913
855.436383 0.97081
855.864208 0.971044
856.292247 0.971244
856.7205 0.971644
857.148967 0.971167
857.577649 0.971159
858.006545 0.97166
858.435656 0.971662
858.864981 0.971817
859.294521 0.971471
859.724275 0.971964
860.154245 0.972029
860.58443 0.972115
861.014829 0.972049
861.445444 0.972142
861.876275 0.972241
862.307321 0.972238
862.738582 0.972206
863.170059 0.97235
863.601752 0.972459
864.033661 0.972542
864.465786 0.972649
864.898127 0.972669
865.330684 0.972689
865.763458 0.972725
866.196448 0.972767
866.629654 0.97282
867.063077 0.972908
867.496717 0.972922
867.930574 0.973002
868.364648 0.973042
868.798939 0.9731
869.233447 0.973052
869.668172 0.973184
870.103115 0.973222
870.538275 0.973263
870.973653 0.97328
871.409249 0.973339
871.845063 0.973388
872.281094 0.973434
872.717344 0.973473
873.153812 0.973512
873.590498 0.973503
874.027402 0.973577
874.464525 0.973601
874.901867 0.973616
875.339427 0.973689
875.777206 0.973724
876.215204 0.973619
876.653421 0.973779
877.091858 0.973736
877.530513 0.973839
877.969388 0.973893
878.408483 0.973642
878.847797 0.973765
879.287331 0.973897
879.727084 0.974015
880.167058 0.973816
880.607251 0.973648
881.047665 0.974053
881.488299 0.973642
881.929153 0.974081
882.370228 0.973212
882.811524 0.974212
883.25304 0.973679
883.694777 0.9738
884.136734 0.974059
884.578913 0.974309
885.021313 0.97403
885.463935 0.973814
885.906777 0.971955
886.349842 0.974025
886.793127 0.973369
887.236635 0.974145
887.680364 0.974343
888.124315 0.971581
888.568488 0.973916
889.012884 0.974463
889.457501 0.974379
889.902341 0.973327
890.347404 0.973122
890.792689 0.973734
891.238196 0.974088
891.683927 0.974123
892.12988 0.970887
892.576057 0.974348
893.022456 0.967643
893.469079 0.962087
893.915925 0.973494
894.362995 0.963192
894.810289 0.961426
895.257806 0.953432
895.705546 0.938259
896.153511 0.965214
896.6017 0.89683
897.050113 0.956275
897.49875 0.8998
897.947612 0.960247
898.396698 0.91896
898.846008 0.876324
899.295544 0.838277
899.745304 0.96735
900.195289 0.896657
900.645499 0.920505
901.095935 0.927753
901.546595 0.930711
901.997481 0.881977
902.448593 0.926502
902.89993 0.912626
903.351493 0.944887
903.803281 0.971682
904.255296 0.96216
904.707537 0.956911
905.160004 0.962958
905.612697 0.947824
906.065616 0.962404
906.518762 0.931514
906.972135 0.921634
907.425735 0.911298
907.879561 0.950038
908.333614 0.885499
908.787895 0.899642
909.242402 0.957277
909.697137 0.926271
910.152099 0.898928
910.607289 0.941306
911.062707 0.920316
911.518352 0.970052
911.974225 0.884957
912.430326 0.969455
912.886655 0.94292
913.343213 0.89319
913.799999 0.85993
914.257013 0.965442
914.714256 0.954567
915.171727 0.952498
915.629427 0.835449
916.087357 0.946069
916.545515 0.951898
917.003902 0.946737
917.462519 0.906266
917.921365 0.905219
918.38044 0.960757
918.839745 0.929445
919.29928 0.95681
919.759045 0.930275
920.219039 0.971865
920.679264 0.967465
921.139718 0.958387
921.600403 0.947913
922.061319 0.949129
922.522465 0.962295
922.983841 0.962088
923.445449 0.961082
923.907287 0.947851
924.369356 0.953936
924.831656 0.944787
925.294188 0.951859
925.75695 0.964851
926.219945 0.949048
926.68317 0.961612
927.146628 0.965763
927.610317 0.948211
928.074238 0.895055
928.538391 0.928826
929.002777 0.920571
929.467394 0.917614
929.932244 0.865395
930.397326 0.860872
930.862641 0.831891
931.328189 0.817607
931.79397 0.677755
932.259983 0.843626
932.72623 0.638682
933.192709 0.800777
933.659422 0.670359
934.126369 0.729487
934.593549 0.452897
935.060962 0.872325
935.52861 0.643978
935.996491 0.62009
936.464606 0.903903
936.932956 0.71274
937.401539 0.601176
937.870357 0.758815
938.33941 0.682854
938.808697 0.751666
939.278219 0.917705
939.747975 0.935639
940.217967 0.828584
940.688193 0.901511
941.158655 0.781331
941.629352 0.916717
942.100284 0.835904
942.571452 0.876135
943.042856 0.598043
943.514495 0.856917
943.98637 0.784959
944.458481 0.580321
944.930829 0.881054
945.403412 0.889191
945.876232 0.710755
946.349289 0.676472
946.822581 0.877945
947.296111 0.815155
947.769878 0.813811
948.243881 0.676651
948.718122 0.87716
949.192599 0.927655
949.667314 0.726499
950.142267 0.663991
950.617456 0.817911
951.092884 0.945107
951.568549 0.904491
952.044453 0.724091
952.520594 0.761676
952.996973 0.781555
953.473591 0.927475
953.950447 0.838071
954.427541 0.828513
954.904875 0.801604
955.382446 0.869773
955.860257 0.75516
956.338307 0.897498
956.816595 0.760485
957.295123 0.861136
957.77389 0.941447
958.252897 0.788607
958.732143 0.937534
959.211629 0.770576
959.691355 0.846072
960.171321 0.877109
960.651526 0.858109
961.131972 0.89529
961.612658 0.899257
962.093585 0.903965
962.574752 0.84175
963.05616 0.885841
963.537808 0.967958
964.019698 0.836462
964.501828 0.923317
964.9842 0.8412
965.466812 0.939366
965.949666 0.936166
966.432762 0.859172
966.916099 0.921975
967.399678 0.918497
967.883499 0.976159
968.367562 0.908716
968.851867 0.967196
969.336414 0.957835
969.821203 0.97053
970.306235 0.922014
970.791509 0.975356
971.277026 0.960236
971.762786 0.931761
972.248789 0.975701
972.735035 0.930434
973.221524 0.956381
973.708257 0.912928
974.195233 0.952558
974.682452 0.918937
975.169915 0.927876
975.657622 0.936641
976.145573 0.923345
976.633768 0.913888
977.122207 0.971614
977.61089 0.961624
978.099817 0.949794
978.58899 0.937058
979.078406 0.963939
979.568068 0.916823
980.057975 0.960396
980.548126 0.93868
981.038523 0.975583
981.529165 0.96892
982.020052 0.967524
982.511185 0.967213
983.002563 0.955791
983.494187 0.966945
983.986057 0.976366
984.478173 0.966504
984.970536 0.963724
985.463144 0.97638
985.955999 0.977403
986.4491 0.979276
986.942448 0.975889
987.436043 0.97111
987.929884 0.97742
988.423973 0.979394
988.918308 0.979155
989.412891 0.979206
989.907721 0.977279
990.402799 0.97569
990.898124 0.978676
991.393697 0.979389
991.889518 0.97981
992.385586 0.978957
992.881903 0.976321
993.378468 0.979213
993.875282 0.979863
994.372344 0.979569
994.869654 0.980392
995.367213 0.97987
995.865021 0.979743
996.363078 0.980426
996.861384 0.979796
997.35994 0.98046
997.858744 0.979701
998.357799 0.980634
998.857102 0.979915
999.356656 0.979385
999.856459 0.980383
1000.35651 0.979742
1000.85682 0.980808
1001.35737 0.979805
1001.85817 0.977222
1002.35923 0.978751
1002.86053 0.980081
1003.36209 0.980887
1003.86389 0.979415
1004.36595 0.980009
1004.86826 0.980577
1005.37082 0.979934
1005.87363 0.980801
1006.37669 0.980596
1006.88001 0.980539
1007.38357 0.980421
1007.88739 0.979562
1008.39146 0.980593
1008.89578 0.979696
1009.40036 0.977941
1009.90518 0.979992
1010.41026 0.980234
1010.91559 0.980816
1011.42118 0.981017
1011.92701 0.97981
1012.43311 0.980786
1012.93945 0.981121
1013.44604 0.980811
1013.95289 0.981317
1014.46 0.980505
1014.96735 0.980773
1015.47496 0.980295
1015.98283 0.981372
1016.49095 0.981399
1016.99932 0.980747
1017.50795 0.980763
1018.01683 0.98139
1018.52596 0.981256
1019.03535 0.981457
1019.545 0.979097
1020.0549 0.981511
1020.56505 0.981013
1021.07546 0.981394
1021.58613 0.980548
1022.09705 0.981568
1022.60823 0.981573
1023.11966 0.980512
1023.63135 0.97998
1024.14329 0.980053
1024.65549 0.981643
1025.16795 0.981342
1025.68066 0.981179
1026.19363 0.981271
1026.70685 0.981693
1027.22033 0.981071
1027.73407 0.980753
1028.24807 0.981724
1028.76232 0.980889
1029.27683 0.981554
1029.7916 0.981592
1030.30662 0.981718
1030.8219 0.981605
1031.33744 0.981407
1031.85324 0.981752
1032.3693 0.981796
1032.88561 0.981801
1033.40218 0.98157
1033.91901 0.981746
1034.4361 0.981801
1034.95345 0.9818
1035.47105 0.981798
1035.98892 0.981689
1036.50704 0.981677
1037.02543 0.981547
1037.54407 0.98157
1038.06297 0.981724
1038.58213 0.981681
1039.10155 0.981691
1039.62123 0.98161
1040.14117 0.981683
1040.66138 0.981669
1041.18184 0.981607
1041.70256 0.981689
1042.22354 0.981639
1042.74478 0.981657
1043.26628 0.981633
1043.78805 0.981616
1044.31007 0.981585
1044.83236 0.981529
1045.3549 0.981461
1045.87771 0.98145
1046.40078 0.981402
1046.92411 0.981342
1047.44771 0.981271
1047.97156 0.981221
1048.49568 0.981149
1049.02006 0.980679
1049.5447 0.980219
1050.0696 0.98037
1050.59477 0.980594
1051.1202 0.980432
1051.64589 0.980191
1052.17184 0.979859
1052.69806 0.979851
1053.22454 0.979686
1053.75128 0.979498
1054.27829 0.979314
1054.80556 0.978981
1055.3331 0.978698
1055.8609 0.978338
1056.38896 0.977969
1056.91728 0.977552
1057.44588 0.977147
1057.97473 0.976691
1058.50385 0.976326
1059.03323 0.975861
1059.56288 0.975679
1060.0928 0.975367
1060.62298 0.975264
1061.15342 0.97494
1061.68413 0.974923
1062.2151 0.974341
1062.74634 0.974199
1063.27785 0.973788
1063.80962 0.973594
1064.34166 0.97338
1064.87396 0.972469
1065.40653 0.972908
1065.93937 0.972683
1066.47247 0.972949
1067.00584 0.973023
1067.53948 0.972919
1068.07338 0.972911
1068.60755 0.974388
1069.14199 0.975209
1069.6767 0.975115
1070.21167 0.97578
1070.74691 0.977393
1071.28241 0.977988
1071.81819 0.977916
1072.35423 0.977045
1072.89054 0.978875
1073.42712 0.97993
1073.96397 0.980449
1074.50109 0.975566
1075.03847 0.979789
1075.57613 0.981099
1076.11405 0.981432
1076.65224 0.981157
1077.1907 0.98054
1077.72943 0.974922
1078.26843 0.980393
1078.8077 0.982501
1079.34724 0.981866
1079.88705 0.981589
1080.42712 0.973654
1080.96747 0.981623
1081.50809 0.977269
1082.04898 0.981232
1082.59014 0.982917
1083.13157 0.983203
1083.67327 0.970952
1084.21524 0.980241
1084.75749 0.980671
1085.3 0.980837
1085.84279 0.975531
1086.38585 0.961935
1086.92917 0.979269
1087.47277 0.98164
1088.01665 0.981321
1088.56079 0.980938
1089.10521 0.976519
1089.6499 0.978389
1090.19486 0.96727
1090.74009 0.978605
1091.2856 0.983043
1091.83138 0.982879
1092.37743 0.962823
1092.92375 0.965649
1093.47035 0.980078
1094.01722 0.978931
1094.56437 0.973153
1095.11179 0.968817
1095.65948 0.969763
1096.20745 0.964105
1096.75569 0.982047
1097.3042 0.982258
1097.85299 0.956913
1098.40206 0.97507
1098.9514 0.964881
1099.50101 0.951783
1100.0509 0.962904
1100.60106 0.968217
1101.1515 0.956054
1101.70221 0.964319
1102.2532 0.956776
1102.80446 0.942788
1103.356 0.961217
1103.90782 0.974722
1104.45991 0.932256
1105.01228 0.968268
1105.56493 0.948258
1106.11785 0.932242
1106.67104 0.942999
1107.22452 0.97245
1107.77827 0.951671
1108.3323 0.916434
1108.8866 0.94129
1109.44118 0.952417
1109.99604 0.953642
1110.55118 0.900841
1111.10659 0.895594
1111.66228 0.889654
1112.21825 0.937239
1112.7745 0.888437
1113.33103 0.830801
1113.88783 0.815758
1114.44492 0.945558
1115.00228 0.734141
1115.55992 0.857059
1116.11784 0.80074
1116.67604 0.51841
1117.23451 0.728532
1117.79327 0.880192
1118.35231 0.766457
1118.91162 0.731763
1119.47122 0.670382
1120.0311 0.788026
1120.59125 0.709928
1121.15169 0.779913
1121.7124 0.745228
1122.2734 0.491857
1122.83468 0.608163
1123.39623 0.79194
1123.95807 0.620794
1124.52019 0.840965
1125.08259 0.795438
1125.64527 0.343858
1126.20824 0.669357
1126.77148 0.854448
1127.33501 0.721871
1127.89882 0.640576
1128.46291 0.76127
1129.02728 0.735948
1129.59194 0.587826
1130.15687 0.730858
1130.72209 0.898098
1131.2876 0.88357
1131.85338 0.903018
1132.41945 0.800329
1132.9858 0.84359
1133.55243 0.560732
1134.11935 0.638341
1134.68655 0.190893
1135.25404 0.557044
1135.82181 0.72512
1136.38986 0.776652
1136.9582 0.933263
1137.52682 0.77557
1138.09572 0.937357
1138.66491 0.737004
1139.23439 0.964548
1139.80415 0.751173
1140.37419 0.948006
1140.94452 0.736072
1141.51514 0.800495
1142.08604 0.830398
1142.65722 0.907055
1143.2287 0.94693
1143.80045 0.79266
1144.3725 0.6394
1144.94483 0.77842
1145.51744 0.761614
1146.09034 0.767954
1146.66353 0.668722
1147.23701 0.646708
1147.81077 0.789027
1148.38482 0.942303
1148.95915 0.756833
1149.53378 0.742477
1150.10869 0.738252
1150.68389 0.839834
1151.25937 0.823043
1151.83514 0.810148
1152.41121 0.766104
1152.98756 0.824883
1153.56419 0.846057
1154.14112 0.793922
1154.71834 0.83058
1155.29584 0.90179
1155.87363 0.802316
1156.45171 0.877326
1157.03008 0.922885
1157.60874 0.832699
1158.18769 0.933183
1158.76693 0.848034
1159.34646 0.948982
1159.92628 0.891078
1160.50639 0.845781
1161.08678 0.946819
1161.66747 0.928014
1162.24845 0.892836
1162.82972 0.974209
1163.41128 0.951806
1163.99313 0.943312
1164.57527 0.968283
1165.15771 0.919988
1165.74043 0.920829
1166.32345 0.958166
1166.90676 0.93171
1167.49035 0.963819
1168.07425 0.963054
1168.65843 0.948447
1169.2429 0.954794
1169.82767 0.980811
1170.41273 0.951632
1170.99808 0.959649
1171.58373 0.976642
1172.16967 0.949509
1172.7559 0.970528
1173.34242 0.964444
1173.92924 0.893966
1174.51635 0.961162
1175.10376 0.968399
1175.69146 0.954803
1176.27945 0.98539
1176.86774 0.978535
1177.45632 0.925355
1178.04519 0.950291
1178.63436 0.957435
1179.22383 0.983804
1179.81359 0.930839
1180.40364 0.982957
1180.99399 0.973607
1181.58464 0.900915
1182.17558 0.908793
1182.76681 0.966676
1183.35834 0.979386
1183.95017 0.976098
1184.54229 0.919954
1185.13471 0.947314
1185.72743 0.975848
1186.32044 0.973104
1186.91375 0.972001
1187.50735 0.929213
1188.10125 0.934587
1188.69545 0.955531
1189.28995 0.959699
1189.88474 0.982208
1190.47984 0.965616
1191.07522 0.961108
1191.67091 0.971352
1192.26689 0.983229
1192.86318 0.980058
1193.45976 0.945889
1194.05664 0.98531
1194.65381 0.97552
1195.25129 0.966968
1195.84907 0.965472
1196.44714 0.972296
1197.04551 0.980587
1197.64419 0.955563
1198.24316 0.978527
1198.84243 0.943145
1199.442 0.957298
1200.04187 0.974351
1200.64204 0.964491
1201.24251 0.971356
1201.84328 0.94993
1202.44436 0.977959
1203.04573 0.975373
1203.6474 0.894685
1204.24938 0.954787
1204.85165 0.942596
1205.45423 0.980183
1206.05711 0.981684
1206.66029 0.965628
1207.26377 0.952067
1207.86755 0.96753
1208.47163 0.969096
1209.07602 0.953561
1209.68071 0.966653
1210.2857 0.978677
1210.891 0.981272
1211.49659 0.951276
1212.10249 0.965682
1212.7087 0.977579
1213.3152 0.981627
1213.92201 0.967098
1214.52912 0.972638
1215.13654 0.968721
1215.74426 0.977332
1216.35228 0.979851
1216.96061 0.972316
1217.56924 0.985673
1218.17818 0.968613
1218.78742 0.971897
1219.39697 0.967715
1220.00682 0.977612
1220.61698 0.977783
1221.22744 0.975722
1221.8382 0.97003
1222.44928 0.970781
1223.06065 0.978504
1223.67234 0.970824
1224.28432 0.976552
1224.89662 0.982217
1225.50922 0.977671
1226.12213 0.981305
1226.73534 0.978098
1227.34886 0.972136
1227.96269 0.982543
1228.57683 0.983115
1229.19127 0.981678
1229.80602 0.977964
1230.42108 0.982838
1231.03644 0.982853
1231.65211 0.982622
1232.26809 0.98388
1232.88438 0.979877
1233.50098 0.980054
1234.11788 0.983403
1234.73509 0.982924
1235.35262 0.982347
1235.97045 0.982945
1236.58859 0.981645
1237.20704 0.982163
1237.82579 0.982448
1238.44486 0.982125
1239.06424 0.98247
1239.68393 0.982293
1240.30392 0.981843
1240.92423 0.980788
1241.54485 0.98169
1242.16577 0.981493
1242.78701 0.981227
1243.40856 0.981073
1244.03042 0.980421
1244.65259 0.980624
1245.27507 0.98
1245.89787 0.980048
1246.52097 0.978928
1247.14439 0.979409
1247.76812 0.979002
1248.39216 0.976653
1249.01651 0.978213
1249.64117 0.975035
1250.26615 0.977276
1250.89144 0.971927
1251.51704 0.976092
1252.14296 0.975654
1252.76918 0.967295
1253.39573 0.974338
1254.02258 0.962332
1254.64975 0.972707
1255.27723 0.971706
1255.90503 0.956076
1256.53314 0.969873
1257.16156 0.950759
1257.7903 0.966596
1258.41935 0.964017
1259.04872 0.939674
1259.6784 0.955987
1260.30839 0.949146
1260.93871 0.917654
1261.56933 0.929552
1262.20028 0.930813
1262.83153 0.897321
1263.46311 0.901471
1264.095 0.87273
1264.7272 0.92096
1265.35972 0.913893
1265.99256 0.871019
1266.62572 0.893079
1267.25919 0.935894
1267.89298 0.917788
1268.52708 0.714657
1269.1615 0.776107
1269.79624 0.889276
1270.4313 0.917283
1271.06667 0.938918
1271.70237 0.930648
1272.33838 0.940152
1272.9747 0.918545
1273.61135 0.942337
1274.24832 0.938094
1274.8856 0.933942
1275.5232 0.968736
1276.16112 0.931904
1276.79936 0.96797
1277.43792 0.954752
1278.0768 0.966809
1278.716 0.959711
1279.35552 0.969966
1279.99535 0.971951
1280.63551 0.964746
1281.27599 0.977209
1281.91679 0.978522
1282.55791 0.972738
1283.19935 0.979504
1283.84111 0.981646
1284.48319 0.974278
1285.12559 0.982223
1285.76831 0.983126
1286.41136 0.979478
1287.05472 0.98069
1287.69841 0.98423
1288.34242 0.977603
1288.98676 0.974992
1289.63141 0.982959
1290.27639 0.981864
1290.92169 0.983792
1291.56731 0.977296
1292.21325 0.980411
1292.85952 0.979861
1293.50611 0.9857
1294.15303 0.981227
1294.80027 0.981733
1295.44783 0.971463
1296.09571 0.98148
1296.74392 0.976421
1297.39246 0.962484
1298.04132 0.97996
1298.6905 0.986796
1299.34001 0.970687
1299.98984 0.977921
1300.64 0.959256
1301.29048 0.965577
1301.94129 0.986382
1302.59242 0.960652
1303.24388 0.961684
1303.89566 0.9674
1304.54778 0.927982
1305.20021 0.985068
1305.85298 0.972239
1306.50607 0.928812
1307.15948 0.955327
1307.81323 0.940717
1308.4673 0.975185
1309.12169 0.979939
1309.77642 0.903283
1310.43147 0.926096
1311.08685 0.97426
1311.74256 0.986843
1312.39859 0.941935
1313.05495 0.934507
1313.71165 0.880944
1314.36867 0.949568
1315.02601 0.937562
1315.68369 0.926376
1316.3417 0.979114
1317.00003 0.903654
1317.6587 0.983332
1318.31769 0.920018
1318.97702 0.927104
1319.63667 0.923727
1320.29665 0.835788
1320.95697 0.971028
1321.61761 0.915705
1322.27858 0.936699
1322.93989 0.85865
1323.60152 0.963738
1324.26349 0.871486
1324.92579 0.980926
1325.58842 0.916216
1326.25138 0.952982
1326.91467 0.89108
1327.57829 0.931956
1328.24225 0.872863
1328.90653 0.821312
1329.57115 0.919721
1330.2361 0.880538
1330.90139 0.863183
1331.56701 0.753615
1332.23296 0.758477
1332.89924 0.90769
1333.56586 0.806468
1334.2328 0.886816
1334.90009 0.864541
1335.56771 0.945023
1336.23566 0.759438
1336.90394 0.864122
1337.57256 0.839284
1338.24151 0.856709
1338.9108 0.875184
1339.58042 0.879467
1340.25038 0.671924
1340.92067 0.91986
1341.5913 0.768704
1342.26227 0.946727
1342.93356 0.829306
1343.6052 0.82385
1344.27717 0.555111
1344.94948 0.777982
1345.62212 0.691248
1346.2951 0.675367
1346.96841 0.794782
1347.64207 0.398008
1348.31606 0.412297
1348.99038 0.530876
1349.66505 0.736768
1350.34005 0.349981
1351.01539 0.530555
1351.69106 0.248366
1352.36708 0.467507
1353.04343 0.324735
1353.72012 0.418487
1354.39715 0.106489
1355.07452 0.102063
1355.75223 0.148104
1356.43027 0.359574
1357.10866 0.200655
1357.78738 0.170801
1358.46644 0.126599
1359.14585 0.160405
1359.82559 0.123562
1360.50567 0.111216
1361.1861 0.030753
1361.86686 0.00381445
1362.54796 0.00603967
1363.22941 0.237028
1363.91119 0.16368
1364.59332 0.0151781
1365.27579 0.0314795
1365.95859 0.262288
1366.64174 0.178346
1367.32524 0.09175
1368.00907 0.0191345
1368.69324 0.0359564
1369.37776 0.237002
1370.06262 0.0873056
1370.74783 0.0778672
1371.43337 0.0752629
1372.11926 0.067058
1372.80549 0.185069
1373.49206 0.255562
1374.17898 0.209186
1374.86624 0.152964
1375.55385 0.444033
1376.2418 0.213876
1376.93009 0.110432
1377.61873 0.545918
1378.30771 0.242999
1378.99703 0.126963
1379.68671 0.432738
1380.37672 0.0181412
1381.06708 0.0417704
1381.75779 0.187932
1382.44884 0.0350325
1383.14024 0.0641076
1383.83198 0.0563249
1384.52407 0.198561
1385.2165 0.0413266
1385.90929 0.208998
1386.60241 0.237991
1387.29589 0.355974
1387.98971 0.0175367
1388.68388 0.268994
1389.37839 0.53885
1390.07326 0.304028
1390.76847 0.302533
1391.46403 0.482779
1392.15993 0.103279
1392.85619 0.154189
1393.55279 0.414517
1394.24974 0.30537
1394.94704 0.0259798
1395.64469 0.0305781
1396.34268 0.0566382
1397.04103 0.203754
1397.73972 0.600409
1398.43877 0.411376
1399.13816 0.381116
1399.83791 0.0691625
1400.538 0.0255754
1401.23844 0.0541778
1401.93924 0.281867
1402.64038 0.570083
1403.34188 0.412836
1404.04373 0.19026
1404.74592 0.0624872
1405.44847 0.254823
1406.15137 0.544348
1406.85462 0.104863
1407.55823 0.22556
1408.26218 0.479121
1408.96649 0.238124
1409.67115 0.0809096
1410.37616 0.360042
1411.08152 0.434561
1411.78724 0.51402
1412.49331 0.341651
1413.19973 0.680883
1413.90651 0.253027
1414.61364 0.116519
1415.32112 0.315565
1416.02896 0.653614
1416.73715 0.588658
1417.4457 0.440796
1418.1546 0.604387
1418.86385 0.221851
1419.57346 0.225697
1420.28343 0.389221
1420.99375 0.503953
1421.70442 0.616764
1422.41545 0.641604
1423.12684 0.340799
1423.83858 0.298115
1424.55068 0.797949
1425.26313 0.535893
1425.97594 0.492627
1426.68911 0.737982
1427.40263 0.451361
1428.11651 0.389211
1428.83074 0.42586
1429.54534 0.739382
1430.26029 0.754274
1430.9756 0.528969
1431.69127 0.307346
1432.40729 0.289495
1433.12367 0.668567
1433.84041 0.57384
1434.55751 0.427649
1435.27497 0.64783
1435.99279 0.577934
1436.71096 0.653866
1437.4295 0.316854
1438.14839 0.50396
1438.86765 0.687025
1439.58726 0.445529
1440.30724 0.667302
1441.02757 0.661855
1441.74826 0.536048
1442.46932 0.64262
1443.19073 0.555705
1443.91251 0.763168
1444.63464 0.686082
1445.35714 0.376763
1446.08 0.43297
1446.80322 0.643662
1447.52681 0.771686
1448.25075 0.807493
1448.97506 0.800675
1449.69972 0.736405
1450.42476 0.264104
1451.15015 0.428163
1451.87591 0.717479
1452.60203 0.73257
1453.32851 0.782557
1454.05535 0.88492
1454.78256 0.837908
1455.51014 0.606497
1456.23807 0.836128
1456.96637 0.826526
1457.69504 0.762318
1458.42407 0.907839
1459.15346 0.90731
1459.88322 0.854158
1460.61335 0.67629
1461.34384 0.710713
1462.07469 0.889055
1462.80591 0.731498
1463.5375 0.673199
1464.26945 0.90854
1465.00177 0.615449
1465.73445 0.747918
1466.4675 0.643072
1467.20092 0.665054
1467.9347 0.738697
1468.66885 0.888983
1469.40337 0.543462
1470.13826 0.795403
1470.87351 0.339417
1471.60913 0.744959
1472.34512 0.490428
1473.08148 0.793364
1473.8182 0.702231
1474.55529 0.927423
1475.29276 0.916753
1476.03059 0.643692
1476.76879 0.678134
1477.50736 0.748058
1478.24629 0.723863
1478.9856 0.867372
1479.72528 0.727465
1480.46533 0.520354
1481.20575 0.939744
1481.94653 0.582374
1482.68769 0.933247
1483.42922 0.873504
1484.17112 0.745724
1484.91339 0.844705
1485.65603 0.865997
1486.39905 0.69049
1487.14243 0.799688
1487.88619 0.801135
1488.63032 0.883126
1489.37482 0.803595
1490.11969 0.946602
1490.86494 0.968645
1491.61056 0.791022
1492.35655 0.901108
1493.10292 0.899511
1493.84965 0.929661
1494.59677 0.913072
1495.34425 0.909477
1496.09211 0.895755
1496.84034 0.888805
1497.58895 0.952434
1498.33793 0.890812
1499.08729 0.946826
1499.83702 0.949186
1500.58713 0.971003
1501.33761 0.977419
1502.08846 0.941435
1502.8397 0.924209
1503.5913 0.901849
1504.34329 0.897492
1505.09565 0.915933
1505.84838 0.974623
1506.60149 0.988002
1507.35498 0.961821
1508.10885 0.955743
1508.86309 0.874393
1509.61771 0.989475
1510.37271 0.972955
1511.12809 0.973359
1511.88384 0.986719
1512.63997 0.954573
1513.39648 0.968081
1514.15337 0.954589
1514.91063 0.978078
1515.66828 0.987254
1516.4263 0.96307
1517.1847 0.968228
1517.94349 0.970038
1518.70265 0.964112
1519.46219 0.969398
1520.22211 0.976817
1520.98241 0.991053
1521.74309 0.979668
1522.50415 0.990548
1523.2656 0.986258
1524.02742 0.989912
1524.78962 0.976924
1525.55221 0.980729
1526.31518 0.984932
1527.07852 0.97459
1527.84225 0.988669
1528.60637 0.983947
1529.37086 0.986862
1530.13574 0.983213
1530.901 0.987247
1531.66664 0.980282
1532.43266 0.987285
1533.19907 0.984012
1533.96586 0.982362
1534.73304 0.978101
1535.5006 0.979409
1536.26854 0.983711
1537.03686 0.98404
1537.80557 0.989007
1538.57467 0.987081
1539.34415 0.982308
1540.11401 0.984066
1540.88426 0.98377
1541.6549 0.985869
1542.42592 0.98474
1543.19732 0.98619
1543.96912 0.986223
1544.74129 0.988393
1545.51386 0.990225
1546.28681 0.989259
1547.06014 0.990789
1547.83387 0.990879
1548.60798 0.99139
1549.38248 0.991143
1550.15736 0.991551
1550.93263 0.990587
1551.70829 0.989667
1552.48434 0.99124
1553.26078 0.99163
1554.0376 0.990828
1554.81482 0.991405
1555.59242 0.991862
1556.37041 0.991775
1557.14879 0.991675
1557.92756 0.991733
1558.70672 0.991501
1559.48626 0.991591
1560.2662 0.991687
1561.04653 0.991436
1561.82725 0.991736
1562.60836 0.990135
1563.38986 0.991804
1564.17175 0.990596
1564.95403 0.991902
1565.7367 0.991
1566.51977 0.99125
1567.30322 0.9897
1568.08707 0.985864
1568.87131 0.975862
1569.65594 0.962643
1570.44096 0.945636
1571.22638 0.940031
1572.01219 0.912907
1572.79839 0.934397
1573.58499 0.939197
1574.37198 0.94893
1575.15936 0.978338
1575.94714 0.967775
1576.73531 0.948748
1577.52387 0.939323
1578.31283 0.939523
1579.10219 0.962324
1579.89193 0.946114
1580.68208 0.955393
1581.47262 0.97561
1582.26355 0.96967
1583.05488 0.982421
1583.84661 0.981026
1584.63873 0.988182
1585.43124 0.987836
1586.22416 0.989976
1587.01747 0.989456
1587.81118 0.99159
1588.60528 0.991781
1589.39978 0.991807
1590.19468 0.991345
1590.98998 0.992043
1591.78567 0.991373
1592.58176 0.991317
1593.37825 0.992172
1594.17514 0.990971
1594.97243 0.991803
1595.77011 0.991852
1596.5682 0.99052
1597.36668 0.988913
1598.16556 0.986934
1598.96485 0.97617
1599.76453 0.963627
1600.56461 0.945485
1601.36509 0.943205
1602.16598 0.91417
1602.96726 0.932874
1603.76894 0.939984
1604.57103 0.953486
1605.37351 0.976412
1606.1764 0.970282
1606.97969 0.951518
1607.78338 0.960494
1608.58747 0.940341
1609.39197 0.937797
1610.19687 0.942908
1611.00217 0.967205
1611.80787 0.956819
1612.61397 0.976459
1613.42048 0.972709
1614.22739 0.984108
1615.03471 0.982311
1615.84243 0.987227
1616.65055 0.985371
1617.45908 0.988603
1618.26801 0.989349
1619.07735 0.988985
1619.88709 0.990649
1620.69724 0.991046
1621.50779 0.990568
1622.31874 0.991482
1623.13011 0.991517
1623.94187 0.990084
1624.75405 0.991992
1625.56663 0.990507
1626.37961 0.990902
1627.19301 0.990271
1628.00681 0.989289
1628.82101 0.990266
1629.63563 0.991178
1630.45065 0.984758
1631.26608 0.990622
1632.08192 0.990112
1632.89816 0.983668
1633.71481 0.989762
1634.53188 0.99009
1635.34935 0.979359
1636.16722 0.990397
1636.98551 0.989701
1637.80421 0.970723
1638.62332 0.989037
1639.44283 0.985635
1640.26276 0.963165
1641.0831 0.986274
1641.90384 0.984932
1642.725 0.955862
1643.54657 0.983678
1644.36855 0.987365
1645.19094 0.953085
1646.01374 0.987926
1646.83695 0.988248
1647.66058 0.984739
1648.48461 0.957303
1649.30906 0.983494
1650.13392 0.984709
1650.95919 0.954692
1651.78488 0.984346
1652.61098 0.989578
1653.43749 0.963416
1654.26442 0.990502
1655.09176 0.987495
1655.91951 0.987852
1656.74768 0.97719
1657.57626 0.989914
1658.40525 0.99141
1659.23466 0.985681
1660.06449 0.99112
1660.89473 0.991863
1661.72538 0.988793
1662.55645 0.983714
1663.38794 0.990105
1664.21984 0.991676
1665.05216 0.97218
1665.88489 0.89202
1666.71804 0.961203
1667.55161 0.983202
1668.38559 0.985549
1669.22 0.990486
1670.05481 0.991257
1670.89005 0.989815
1671.7257 0.986707
1672.56178 0.991983
1673.39827 0.991623
1674.23517 0.978033
1675.0725 0.990989
1675.91025 0.990922
1676.74841 0.991056
1677.587 0.973463
1678.426 0.990342
1679.26542 0.992473
1680.10526 0.99176
1680.94553 0.978577
1681.78621 0.990899
1682.62731 0.992446
1683.46884 0.991543
1684.31078 0.967391
1685.15315 0.991199
1685.99594 0.991821
1686.83914 0.989569
1687.68277 0.977548
1688.52683 0.991573
1689.3713 0.989889
1690.2162 0.978377
1691.06152 0.979288
1691.90726 0.984975
1692.75342 0.989339
1693.60001 0.985106
1694.44703 0.984444
1695.29446 0.991314
1696.14232 0.992068
1696.9906 0.960223
1697.83931 0.988696
1698.68844 0.990972
1699.538 0.984338
1700.38798 0.986805
1701.23839 0.975938
1702.08922 0.988566
1702.94048 0.982836
1703.79216 0.982466
1704.64427 0.987837
1705.4968 0.98052
1706.34977 0.978712
1707.20315 0.974727
1708.05697 0.980285
1708.91121 0.949611
1709.76588 0.98728
1710.62098 0.981524
1711.4765 0.99025
1712.33245 0.988137
1713.18883 0.988175
1714.04564 0.95693
1714.90288 0.97892
1715.76054 0.969692
1716.61864 0.989098
1717.47716 0.991438
1718.33612 0.991128
1719.1955 0.991119
1720.05531 0.988781
1720.91556 0.95255
1721.77623 0.960248
1722.63733 0.982673
1723.49887 0.950951
1724.36083 0.951328
1725.22323 0.974494
1726.08605 0.973652
1726.94931 0.983151
1727.813 0.987091
1728.67713 0.960139
1729.54168 0.988887
1730.40667 0.986635
1731.27209 0.985843
1732.13794 0.875889
1733.00422 0.989028
1733.87094 0.98916
1734.7381 0.986645
1735.60568 0.961353
1736.4737 0.919422
1737.34216 0.987993
1738.21104 0.984853
1739.08037 0.98914
1739.95012 0.95332
1740.82032 0.971606
1741.69094 0.910023
1742.56201 0.989828
1743.43351 0.990344
1744.30544 0.927691
1745.17781 0.990246
1746.05062 0.985177
1746.92386 0.803686
1747.79754 0.959978
1748.67166 0.989741
1749.54622 0.987825
1750.42121 0.986793
1751.29664 0.900583
1752.1725 0.98819
1753.04881 0.985563
1753.92555 0.989921
1754.80273 0.898216
1755.68036 0.976728
1756.55842 0.921072
1757.43691 0.895721
1758.31585 0.988928
1759.19523 0.991407
1760.07505 0.989024
1760.9553 0.922834
1761.836 0.987679
1762.71714 0.887451
1763.59872 0.981589
1764.48074 0.985672
1765.3632 0.89481
1766.2461 0.754138
1767.12945 0.977316
1768.01323 0.963535
1768.89746 0.975641
1769.78213 0.93253
1770.66724 0.901972
1771.5528 0.980842
1772.4388 0.970568
1773.32524 0.976071
1774.21212 0.832661
1775.09945 0.951038
1775.98722 0.815002
1776.87544 0.947383
1777.7641 0.9636
1778.6532 0.751266
1779.54275 0.924344
1780.43274 0.974431
1781.32318 0.706807
1782.21407 0.955586
1783.1054 0.963437
1783.99717 0.89541
1784.88939 0.63228
1785.78206 0.781139
1786.67518 0.871953
1787.56874 0.849256
1788.46274 0.901222
1789.3572 0.978038
1790.2521 0.872786
1791.14745 0.746456
1792.04325 0.804064
1792.93949 0.826022
1793.83619 0.589695
1794.73333 0.903871
1795.63092 0.738183
1796.52896 0.719475
1797.42745 0.82144
1798.32639 0.799548
1799.22578 0.934586
1800.12562 0.359565
1801.0259 0.413622
1801.92664 0.481246
1802.82783 0.636248
1803.72947 0.579418
1804.63156 0.831284
1805.5341 0.61653
1806.43709 0.267405
1807.34054 0.501631
1808.24443 0.78592
1809.14878 0.643705
1810.05358 0.694742
1810.95884 0.217424
1811.86454 0.515633
1812.7707 0.278133
1813.67731 0.639783
1814.58438 0.705745
1815.4919 0.207774
1816.39987 0.473233
1817.3083 0.501268
1818.21718 0.47754
1819.12651 0.529983
1820.0363 0.175141
1820.94655 0.151468
1821.85725 0.0689836
1822.76841 0.288535
1823.68002 0.780485
1824.59209 0.608482
1825.50461 0.467465
1826.41759 0.0314944
1827.33103 0.480123
1828.24492 0.202377
1829.15927 0.163498
1830.07408 0.148289
1830.98935 0.119878
1831.90507 0.313625
1832.82125 0.0990191
1833.73789 0.379781
1834.65499 0.110395
1835.57255 0.0481581
1836.49056 0.0260138
1837.40904 0.0451679
1838.32797 0.0522203
1839.24737 0.189796
1840.16722 0.00134982
1841.08754 0.117071
1842.00831 0.00022198
1842.92954 0.18371
1843.85124 0.140298
1844.77339 0.487759
1845.69601 0.337853
1846.61909 0.0258644
1847.54263 0.00365897
1848.46663 0.00150195
1849.3911 0.159194
1850.31602 0.0754828
1851.24141 0.263787
1852.16727 0.374843
1853.09358 0.0239045
1854.02036 0.00520976
1854.9476 0.153561
1855.87531 0.246885
1856.80348 0.0100489
1857.73211 0.142961
1858.66121 0.305139
1859.59077 0.0253012
1860.5208 0.00213323
1861.45129 0.275612
1862.38225 0.365034
1863.31368 0.282699
1864.24557 0.0721151
1865.17792 0.158469
1866.11074 0.482692
1867.04403 0.136638
1867.97779 0.000177727
1868.91201 0.081505
1869.8467 0.0055571
1870.78186 0.00593132
1871.71748 0.0222939
1872.65357 0.0541888
1873.59014 0.000219592
1874.52716 0.0713784
1875.46466 0.0386229
1876.40263 0.0664079
1877.34107 0.0415253
1878.27997 0.214492
1879.21935 0.380638
1880.15919 0.410851
1881.0995 0.119371
1882.04029 0.390881
1882.98154 0.438122
1883.92327 0.0635778
1884.86547 0.261715
1885.80814 0.312616
1886.75128 0.194941
1887.69489 0.542471
1888.63897 0.559654
1889.58353 0.248284
1890.52855 0.0701544
1891.47406 0.279368
1892.42003 0.0823065
1893.36648 0.148363
1894.3134 0.275166
1895.26079 0.538308
1896.20866 0.383248
1897.157 0.40882
1898.10581 0.110431
1899.0551 0.0217536
1900.00487 0.0062077
1900.95511 0.0997283
1901.90582 0.314559
1902.85701 0.0253226
1903.80868 0.23454
1904.76082 0.0912705
1905.71344 0.00299217
1906.66654 0.0166217
1907.62011 0.333862
1908.57416 0.324776
1909.52868 0.376216
1910.48369 0.220907
1911.43917 0.0828558
1912.39513 0.159115
1913.35156 0.0648488
1914.30848 0.0538235
1915.26587 0.347545
1916.22374 0.0832195
1917.18209 0.299051
1918.14092 0.688265
1919.10024 0.424735
1920.06003 0.00715443
1921.0203 0.0471618
1921.98105 0.44126
1922.94228 0.64731
1923.90399 0.172029
1924.86618 0.383251
1925.82885 0.625553
1926.79201 0.273186
1927.75565 0.313243
1928.71977 0.170121
1929.68437 0.585354
1930.64945 0.161289
1931.61502 0.22565
1932.58106 0.537458
1933.5476 0.537205
1934.51461 0.437047
1935.48211 0.701798
1936.45009 0.342192
1937.41856 0.608143
1938.38751 0.416754
1939.35695 0.155789
1940.32687 0.560542
1941.29728 0.291538
1942.26817 0.767023
1943.23954 0.651563
1944.21141 0.481155
1945.18376 0.417369
1946.15659 0.621517
1947.12991 0.541313
1948.10372 0.497867
1949.07802 0.54052
1950.0528 0.59513
1951.02807 0.637733
1952.00383 0.653052
1952.98007 0.396435
1953.95681 0.434505
1954.93403 0.469715
1955.91174 0.338411
1956.88994 0.333184
1957.86863 0.401349
1958.84781 0.410088
1959.82748 0.569027
1960.80764 0.608664
1961.78829 0.643939
1962.76943 0.589565
1963.75106 0.440639
1964.73318 0.615704
1965.71579 0.518479
1966.69889 0.740077
1967.68249 0.571588
1968.66658 0.768088
1969.65116 0.721273
1970.63623 0.724233
1971.62179 0.688937
1972.60785 0.742759
1973.5944 0.827202
1974.58144 0.781081
1975.56898 0.850064
1976.55701 0.896103
1977.54554 0.915008
1978.53456 0.941963
1979.52407 0.732954
1980.51408 0.772244
1981.50459 0.965441
1982.49559 0.940881
1983.48708 0.937952
1984.47907 0.977171
1985.47156 0.916331
1986.46455 0.898222
1987.45803 0.821161
1988.452 0.96847
1989.44648 0.932824
1990.44145 0.777583
1991.43692 0.979606
1992.43289 0.972607
1993.42935 0.974134
1994.42632 0.86964
1995.42378 0.888941
1996.42174 0.80268
1997.4202 0.752057
1998.41916 0.609704
1999.41862 0.489886
2000.41858 0.498783
2001.41904 0.391208
2002.42 0.285836
2003.42146 0.317123
2004.42342 0.309146
2005.42588 0.244213
2006.42885 0.325676
2007.43231 0.491873
2008.43628 0.524095
2009.44075 0.636162
2010.44572 0.388367
2011.45119 0.480736
2012.45717 0.365698
2013.46365 0.461808
2014.47063 0.47257
2015.47812 0.388286
2016.48611 0.501667
2017.49461 0.525741
2018.50361 0.443911
2019.51311 0.605803
2020.52312 0.639058
2021.53364 0.678411
2022.54465 0.68978
2023.55618 0.702262
2024.56821 0.807485
2025.58075 0.831456
2026.59379 0.866366
2027.60734 0.88526
2028.6214 0.860729
2029.63596 0.927557
2030.65104 0.919971
2031.66661 0.941034
2032.6827 0.939937
2033.6993 0.92797
2034.7164 0.949986
2035.73401 0.953115
2036.75214 0.958215
2037.77077 0.955354
2038.78991 0.9469
2039.80956 0.914744
2040.82972 0.921287
2041.85039 0.928982
2042.87157 0.928071
2043.89326 0.931952
2044.91546 0.939236
2045.93817 0.932651
2046.9614 0.898155
2047.98513 0.862875
2049.00938 0.806354
2050.03414 0.765456
2051.05942 0.745463
2052.0852 0.741498
2053.1115 0.700694
2054.13832 0.637214
2055.16564 0.632046
2056.19348 0.73594
2057.22183 0.657041
2058.2507 0.713849
2059.28009 0.8492
2060.30998 0.912418
2061.3404 0.780599
2062.37132 0.816316
2063.40277 0.679078
2064.43473 0.791739
2065.4672 0.664627
2066.50019 0.786997
2067.5337 0.725491
2068.56773 0.76582
2069.60227 0.815215
2070.63733 0.734904
2071.67291 0.832125
2072.709 0.866743
2073.74562 0.816568
2074.78275 0.855212
2075.8204 0.895387
2076.85857 0.902737
2077.89726 0.884443
2078.93647 0.952319
2079.97619 0.96376
2081.01644 0.958723
2082.05721 0.944465
2083.0985 0.935995
2084.14031 0.935518
2085.18264 0.920878
2086.22549 0.95361
2087.26887 0.947513
2088.31276 0.950013
2089.35718 0.963299
2090.40212 0.946648
2091.44758 0.968114
2092.49357 0.970442
2093.54007 0.957007
2094.58711 0.973272
2095.63466 0.9807
2096.68274 0.982963
2097.73134 0.982704
2098.78047 0.955446
2099.83013 0.983778
2100.8803 0.979598
2101.93101 0.958908
2102.98223 0.98868
2104.03399 0.98679
2105.08627 0.984724
2106.13907 0.986803
2107.19241 0.985314
2108.24627 0.985235
2109.30065 0.981527
2110.35557 0.981666
2111.41101 0.974046
2112.46698 0.983063
2113.52348 0.989994
2114.5805 0.989171
2115.63806 0.987137
2116.69614 0.986554
2117.75475 0.987946
2118.8139 0.966753
2119.87357 0.980425
2120.93377 0.988641
2121.9945 0.990446
2123.05576 0.991985
2124.11756 0.981427
2125.17988 0.987499
2126.24274 0.993174
2127.30612 0.972344
2128.37004 0.990669
2129.43449 0.993942
2130.49948 0.993764
2131.56499 0.994234
2132.63104 0.994011
2133.69762 0.994508
2134.76474 0.994728
2135.83239 0.987816
2136.90057 0.993618
2137.96929 0.994041
2139.03854 0.993913
2140.10833 0.993743
2141.17865 0.99478
2142.24951 0.993246
2143.3209 0.991814
2144.39283 0.993895
2145.46529 0.993705
2146.53829 0.99294
2147.61183 0.989146
2148.68591 0.988827
2149.76052 0.985369
2150.83567 0.982334
2151.91135 0.971489
2152.98758 0.979896
2154.06434 0.985105
2155.14164 0.98393
2156.21948 0.990017
2157.29786 0.990711
2158.37678 0.990485
2159.45624 0.980768
2160.53624 0.980499
2161.61678 0.982311
2162.69785 0.986423
2163.77947 0.953136
2164.86163 0.991419
2165.94433 0.989502
2167.02758 0.975668
2168.11136 0.985459
2169.19569 0.975526
2170.28056 0.989838
2171.36597 0.992403
2172.45192 0.971814
2173.53842 0.987484
2174.62546 0.978796
2175.71305 0.98778
2176.80118 0.984954
2177.88985 0.984665
2178.97907 0.970018
2180.06883 0.991132
2181.15913 0.994699
2182.24999 0.99295
2183.34138 0.959566
2184.43333 0.946561
2185.52582 0.985187
2186.61885 0.988164
2187.71244 0.980474
2188.80657 0.990609
2189.90124 0.987126
2190.99647 0.984507
2192.09224 0.994849
2193.18856 0.994526
2194.28543 0.982171
2195.38285 0.975891
2196.48081 0.986428
2197.57933 0.989187
2198.67839 0.942914
2199.77801 0.910207
2200.87817 0.938736
2201.97888 0.946698
2203.08015 0.967056
2204.18196 0.973088
2205.28433 0.949674
2206.38725 0.983118
2207.49072 0.987271
2208.59474 0.993786
2209.69931 0.993549
2210.80444 0.981533
2211.91012 0.993479
2213.01635 0.993219
2214.12313 0.991986
2215.23047 0.985153
2216.33836 0.950804
2217.44681 0.991167
2218.55581 0.988538
2219.66537 0.990934
2220.77548 0.987965
2221.88614 0.959357
2222.99736 0.989879
2224.10914 0.987787
2225.22147 0.98184
2226.33436 0.97162
2227.44781 0.972481
2228.56181 0.985978
2229.67637 0.99101
2230.79149 0.982449
2231.90716 0.948392
2233.02339 0.980675
2234.14018 0.972655
2235.25753 0.983207
2236.37544 0.965366
2237.49391 0.965303
2238.61294 0.984159
2239.73252 0.978619
2240.85267 0.967498
2241.97337 0.969042
2243.09464 0.978936
2244.21647 0.953536
2245.33886 0.986216
2246.46181 0.947812
2247.58532 0.94201
2248.70939 0.981979
2249.83403 0.970339
2250.95923 0.965208
2252.08499 0.970157
2253.21131 0.96355
2254.3382 0.947716
2255.46565 0.951396
2256.59367 0.931216
2257.72224 0.968346
2258.85139 0.971083
2259.9811 0.96359
2261.11137 0.934726
2262.24221 0.907579
2263.37361 0.952404
2264.50558 0.929806
2265.63812 0.97837
2266.77122 0.98286
2267.90489 0.93578
2269.03912 0.908643
2270.17393 0.943405
2271.3093 0.975435
2272.44524 0.931193
2273.58174 0.972781
2274.71882 0.965063
2275.85646 0.872458
2276.99468 0.920728
2278.13346 0.974208
2279.27281 0.984193
2280.41273 0.920778
2281.55322 0.975772
2282.69428 0.885007
2283.83592 0.924686
2284.97812 0.93882
2286.12089 0.976135
2287.26424 0.965193
2288.40816 0.976814
2289.55265 0.876176
2290.69771 0.943499
2291.84335 0.943842
2292.98955 0.944186
2294.13634 0.93988
2295.28369 0.878232
2296.43162 0.934889
2297.58012 0.97477
2298.7292 0.885515
2299.87885 0.898048
2301.02908 0.925585
2302.17988 0.945022
2303.33126 0.912241
2304.48321 0.907736
2305.63574 0.945159
2306.78885 0.955984
2307.94253 0.918745
2309.09679 0.962239
2310.25163 0.979995
2311.40704 0.991594
2312.56304 0.976187
2313.71961 0.994367
2314.87676 0.991596
2316.03448 0.904919
2317.19279 0.735759
2318.35168 0.834656
2319.51114 0.914178
2320.67119 0.935272
2321.83181 0.923485
2322.99302 0.9205
2324.15481 0.964314
2325.31717 0.941236
2326.48012 0.964547
2327.64365 0.98397
2328.80777 0.900343
2329.97246 0.981071
2331.13774 0.937895
2332.3036 0.93438
2333.47004 0.957845
2334.63707 0.933012
2335.80468 0.94099
2336.97287 0.968225
2338.14165 0.919733
2339.31102 0.918016
2340.48096 0.848743
2341.6515 0.876864
2342.82262 0.942169
2343.99432 0.93035
2345.16661 0.887971
2346.33949 0.899997
2347.51295 0.894691
2348.687 0.892572
2349.86164 0.867897
2351.03686 0.853945
2352.21267 0.799361
2353.38907 0.887635
2354.56606 0.944764
2355.74364 0.840102
2356.92181 0.942775
2358.10056 0.892648
2359.27991 0.881973
2360.45984 0.983259
2361.64037 0.916622
2362.82148 0.97777
2364.00319 0.898146
2365.18549 0.976762
2366.36837 0.950281
2367.55185 0.84482
2368.73593 0.904812
2369.92059 0.814204
2371.10585 0.586545
2372.2917 0.80764
2373.47814 0.917059
2374.66518 0.944683
2375.8528 0.921719
2377.04103 0.835736
2378.22985 0.828071
2379.41926 0.934615
2380.60927 0.900376
2381.79987 0.97591
2382.99107 0.821599
2384.18286 0.785386
2385.37525 0.928518
2386.56823 0.843803
2387.76182 0.815987
2388.956 0.972215
2390.15077 0.919876
2391.34615 0.74981
2392.54212 0.967459
2393.73869 0.925911
2394.93586 0.919295
2396.13362 0.889286
2397.33199 0.841193
2398.53096 0.949582
2399.73052 0.948805
2400.93069 0.915906
2402.13145 0.956376
2403.33282 0.953554
2404.53479 0.769026
2405.73735 0.916059
2406.94052 0.818671
2408.14429 0.870152
2409.34867 0.853245
2410.55364 0.92719
2411.75922 0.873053
2412.9654 0.974318
2414.17219 0.777124
2415.37958 0.810128
2416.58757 0.719224
2417.79616 0.926561
2419.00536 0.428869
2420.21517 0.938333
2421.42558 0.958728
2422.63659 0.929134
2423.84822 0.822595
2425.06044 0.934969
2426.27328 0.818241
2427.48672 0.958798
2428.70076 0.97573
2429.91542 0.96617
2431.13068 0.977272
2432.34655 0.958383
2433.56302 0.813142
2434.78011 0.665372
2435.9978 0.350913
2437.21611 0.875015
2438.43502 0.969618
2439.65454 0.977595
2440.87468 0.977936
2442.09542 0.969403
2443.31677 0.882349
2444.53873 0.953685
2445.76131 0.550488
2446.9845 0.675677
2448.20829 0.819221
2449.4327 0.913094
2450.65773 0.500182
2451.88336 0.649998
2453.10961 0.921565
2454.33647 0.613708
2455.56395 0.950036
2456.79204 0.95675
2458.02074 0.972394
2459.25006 0.954889
2460.47999 0.973411
2461.71054 0.916613
2462.9417 0.511133
2464.17348 0.847522
2465.40587 0.964918
2466.63889 0.948554
2467.87251 0.773955
2469.10676 0.915159
2470.34162 0.930054
2471.5771 0.629376
2472.8132 0.226469
2474.04991 0.902411
2475.28725 0.845286
2476.5252 0.956163
2477.76377 0.86373
2479.00296 0.801431
2480.24278 0.566923
2481.48321 0.567558
2482.72426 0.847737
2483.96593 0.354129
2485.20822 0.786923
2486.45114 0.696348
2487.69468 0.384539
2488.93883 0.52856
2490.18361 0.736683
2491.42902 0.633533
2492.67504 0.56562
2493.92169 0.534251
2495.16897 0.274359
2496.41686 0.71573
2497.66538 0.715696
2498.91453 0.800276
