# Obtained using Skycalc tool from ESO webpage
# Not including telescope emissivity
Wave[nm] Transmission[no-units]
1150 0.520345
1150.08581 0.683578
1150.17163 0.787132
1150.25745 0.885737
1150.34328 0.932926
1150.42912 0.931775
1150.51496 0.919277
1150.60081 0.931773
1150.68667 0.917396
1150.77253 0.788958
1150.8584 0.659042
1150.94428 0.794043
1151.03016 0.913536
1151.11605 0.901344
1151.20194 0.795002
1151.28784 0.648965
1151.37375 0.701142
1151.45966 0.869034
1151.54558 0.951015
1151.63151 0.964214
1151.71744 0.961642
1151.80338 0.939173
1151.88933 0.852709
1151.97528 0.66324
1152.06124 0.559668
1152.1472 0.74113
1152.23318 0.896731
1152.31915 0.937087
1152.40514 0.926536
1152.49113 0.824049
1152.57713 0.565695
1152.66313 0.31232
1152.74914 0.386354
1152.83516 0.706961
1152.92118 0.901131
1153.00721 0.952633
1153.09324 0.964944
1153.17929 0.964756
1153.26533 0.950824
1153.35139 0.931626
1153.43745 0.926232
1153.52352 0.897029
1153.60959 0.821791
1153.69567 0.7567
1153.78176 0.786113
1153.86785 0.836189
1153.95395 0.767134
1154.04006 0.643868
1154.12617 0.753893
1154.21229 0.838283
1154.29842 0.808173
1154.38455 0.755134
1154.47069 0.698878
1154.55683 0.823444
1154.64298 0.935365
1154.72914 0.958563
1154.81531 0.947742
1154.90148 0.858431
1154.98765 0.754177
1155.07384 0.840335
1155.16003 0.93794
1155.24622 0.953328
1155.33243 0.898275
1155.41864 0.833693
1155.50485 0.887777
1155.59107 0.91033
1155.6773 0.747703
1155.76354 0.545876
1155.84978 0.677619
1155.93603 0.873876
1156.02228 0.941932
1156.10854 0.955334
1156.19481 0.957204
1156.28108 0.951677
1156.36736 0.914199
1156.45365 0.811685
1156.53994 0.745508
1156.62624 0.852991
1156.71255 0.939704
1156.79886 0.953461
1156.88518 0.953452
1156.9715 0.965546
1157.05783 0.963088
1157.14417 0.904986
1157.23052 0.839284
1157.31687 0.880895
1157.40322 0.904014
1157.48959 0.909764
1157.57596 0.93688
1157.66233 0.917366
1157.74872 0.779193
1157.83511 0.609694
1157.9215 0.715733
1158.0079 0.894395
1158.09431 0.962033
1158.18073 0.971578
1158.26715 0.96001
1158.35358 0.937143
1158.44001 0.909575
1158.52645 0.889752
1158.6129 0.935253
1158.69936 0.968863
1158.78582 0.956301
1158.87228 0.844277
1158.95876 0.693649
1159.04524 0.761756
1159.13172 0.890097
1159.21822 0.95393
1159.30471 0.967407
1159.39122 0.957973
1159.47773 0.946922
1159.56425 0.929046
1159.65078 0.872771
1159.73731 0.81056
1159.82384 0.886131
1159.91039 0.955018
1159.99694 0.942401
1160.0835 0.899834
1160.17006 0.905203
1160.25663 0.880125
1160.34321 0.757362
1160.42979 0.717786
1160.51638 0.858598
1160.60298 0.947202
1160.68958 0.92623
1160.77619 0.878217
1160.8628 0.899063
1160.94942 0.949549
1161.03605 0.973227
1161.12269 0.965454
1161.20933 0.938476
1161.29598 0.929501
1161.38263 0.911531
1161.46929 0.872078
1161.55596 0.909174
1161.64263 0.939805
1161.72931 0.936963
1161.816 0.95817
1161.90269 0.971331
1161.98939 0.963949
1162.0761 0.950121
1162.16281 0.939335
1162.24953 0.872073
1162.33625 0.787032
1162.42299 0.857394
1162.50972 0.917442
1162.59647 0.946963
1162.68322 0.968441
1162.76998 0.973551
1162.85674 0.977643
1162.94351 0.981064
1163.03029 0.981285
1163.11707 0.977535
1163.20386 0.97217
1163.29066 0.971175
1163.37746 0.968278
1163.46427 0.961287
1163.55109 0.932683
1163.63791 0.913635
1163.72474 0.907505
1163.81157 0.88573
1163.89842 0.930892
1163.98527 0.968858
1164.07212 0.967843
1164.15898 0.961277
1164.24585 0.96536
1164.33272 0.967525
1164.4196 0.970935
1164.50649 0.972429
1164.59339 0.967939
1164.68029 0.967207
1164.76719 0.967178
1164.85411 0.949341
1164.94103 0.925216
1165.02795 0.931464
1165.11488 0.934196
1165.20182 0.898011
1165.28877 0.888798
1165.37572 0.935456
1165.46268 0.970248
1165.54964 0.976205
1165.63662 0.952618
1165.72359 0.890328
1165.81058 0.844086
1165.89757 0.879086
1165.98457 0.925676
1166.07157 0.936428
1166.15858 0.956649
1166.2456 0.970137
1166.33262 0.974815
1166.41965 0.966663
1166.50669 0.956077
1166.59373 0.957607
1166.68078 0.924698
1166.76784 0.882758
1166.8549 0.92577
1166.94197 0.96106
1167.02904 0.95991
1167.11613 0.949237
1167.20321 0.935617
1167.29031 0.958187
1167.37741 0.975851
1167.46452 0.976934
1167.55163 0.975835
1167.63875 0.961598
1167.72588 0.937137
1167.81302 0.939108
1167.90016 0.95592
1167.9873 0.965032
1168.07446 0.976743
1168.16162 0.980048
1168.24878 0.963064
1168.33596 0.927058
1168.42314 0.909045
1168.51032 0.935668
1168.59751 0.965816
1168.68471 0.976109
1168.77192 0.968397
1168.85913 0.959978
1168.94635 0.970047
1169.03357 0.980373
1169.12081 0.980198
1169.20804 0.971282
1169.29529 0.950851
1169.38254 0.930586
1169.4698 0.929059
1169.55706 0.951533
1169.64433 0.975279
1169.73161 0.98373
1169.81889 0.982885
1169.90618 0.979249
1169.99348 0.976283
1170.08078 0.97416
1170.16809 0.964766
1170.25541 0.954256
1170.34273 0.948953
1170.43006 0.94972
1170.5174 0.949035
1170.60474 0.947374
1170.69209 0.964981
1170.77944 0.976631
1170.8668 0.974117
1170.95417 0.949633
1171.04155 0.917824
1171.12893 0.944463
1171.21632 0.974521
1171.30371 0.979179
1171.39111 0.978368
1171.47852 0.980822
1171.56593 0.983397
1171.65335 0.981451
1171.74078 0.973082
1171.82821 0.958828
1171.91565 0.951968
1172.0031 0.968482
1172.09055 0.979659
1172.17801 0.977131
1172.26548 0.943582
1172.35295 0.905495
1172.44043 0.942106
1172.52792 0.976619
1172.61541 0.980389
1172.70291 0.976403
1172.79041 0.965758
1172.87793 0.951035
1172.96544 0.958234
1173.05297 0.962784
1173.1405 0.959885
1173.22804 0.959623
1173.31558 0.974036
1173.40313 0.981546
1173.49069 0.970742
1173.57826 0.945088
1173.66583 0.935117
1173.7534 0.94937
1173.84099 0.914787
1173.92858 0.849042
1174.01618 0.863235
1174.10378 0.891765
1174.19139 0.878339
1174.27901 0.902143
1174.36663 0.940918
1174.45426 0.970955
1174.54189 0.983602
1174.62954 0.984809
1174.71719 0.980814
1174.80484 0.973206
1174.8925 0.971849
1174.98017 0.977824
1175.06785 0.982963
1175.15553 0.980659
1175.24322 0.960184
1175.33091 0.917791
1175.41861 0.89725
1175.50632 0.927579
1175.59404 0.961775
1175.68176 0.974716
1175.76948 0.976918
1175.85722 0.981027
1175.94496 0.984811
1176.03271 0.985963
1176.12046 0.986034
1176.20822 0.985427
1176.29599 0.984532
1176.38376 0.984754
1176.47154 0.984376
1176.55933 0.978335
1176.64712 0.970913
1176.73492 0.976926
1176.82273 0.983928
1176.91054 0.985536
1176.99836 0.984336
1177.08618 0.98016
1177.17402 0.977406
1177.26186 0.978402
1177.3497 0.963978
1177.43755 0.937279
1177.52541 0.910141
1177.61328 0.866968
1177.70115 0.858975
1177.78903 0.862266
1177.87691 0.904867
1177.9648 0.958992
1178.0527 0.9811
1178.14061 0.984071
1178.22852 0.978342
1178.31644 0.944781
1178.40436 0.908386
1178.49229 0.943578
1178.58023 0.973522
1178.66817 0.975995
1178.75612 0.981173
1178.84408 0.985237
1178.93204 0.985922
1179.02001 0.985884
1179.10799 0.985633
1179.19597 0.984923
1179.28396 0.983719
1179.37196 0.977171
1179.45996 0.934351
1179.54797 0.880064
1179.63599 0.913074
1179.72401 0.941818
1179.81204 0.936015
1179.90008 0.960407
1179.98812 0.977388
1180.07617 0.977138
1180.16422 0.981345
1180.25228 0.984505
1180.34035 0.982271
1180.42843 0.978809
1180.51651 0.981083
1180.6046 0.982767
1180.69269 0.97962
1180.7808 0.972346
1180.8689 0.963828
1180.95702 0.965703
1181.04514 0.976252
1181.13327 0.979125
1181.2214 0.964071
1181.30954 0.941638
1181.39769 0.952353
1181.48584 0.967807
1181.574 0.969519
1181.66217 0.95855
1181.75035 0.870098
1181.83853 0.755617
1181.92671 0.824751
1182.01491 0.911756
1182.10311 0.880843
1182.19131 0.838108
1182.27953 0.910293
1182.36775 0.969775
1182.45597 0.974432
1182.54421 0.962764
1182.63245 0.954785
1182.72069 0.95161
1182.80895 0.966758
1182.89721 0.98033
1182.98547 0.981254
1183.07374 0.978423
1183.16202 0.981312
1183.25031 0.983331
1183.3386 0.983591
1183.4269 0.984114
1183.51521 0.979724
1183.60352 0.97274
1183.69184 0.974449
1183.78016 0.970681
1183.86849 0.963088
1183.95683 0.973921
1184.04518 0.982473
1184.13353 0.974599
1184.22189 0.920278
1184.31025 0.856609
1184.39862 0.907231
1184.487 0.963268
1184.57539 0.974609
1184.66378 0.959006
1184.75218 0.933535
1184.84058 0.929445
1184.92899 0.916019
1185.01741 0.890404
1185.10583 0.922733
1185.19426 0.966957
1185.2827 0.981821
1185.37115 0.980786
1185.4596 0.977454
1185.54805 0.980476
1185.63652 0.982997
1185.72499 0.981863
1185.81346 0.978038
1185.90195 0.970095
1185.99044 0.970804
1186.07894 0.978612
1186.16744 0.982871
1186.25595 0.984316
1186.34447 0.981725
1186.43299 0.966377
1186.52152 0.951052
1186.61005 0.967761
1186.6986 0.980451
1186.78715 0.970657
1186.8757 0.956087
1186.96427 0.967129
1187.05284 0.977124
1187.14141 0.976308
1187.23 0.97746
1187.31858 0.980004
1187.40718 0.979315
1187.49578 0.960862
1187.58439 0.892298
1187.67301 0.833119
1187.76163 0.903685
1187.85026 0.963146
1187.9389 0.968864
1188.02754 0.96251
1188.11619 0.912629
1188.20484 0.856065
1188.2935 0.903662
1188.38217 0.932964
1188.47085 0.926603
1188.55953 0.931015
1188.64822 0.961675
1188.73691 0.980821
1188.82562 0.982453
1188.91432 0.979359
1189.00304 0.978057
1189.09176 0.966153
1189.18049 0.933338
1189.26922 0.922558
1189.35796 0.957065
1189.44671 0.979492
1189.53547 0.984401
1189.62423 0.985398
1189.713 0.982736
1189.80177 0.978861
1189.89055 0.980656
1189.97934 0.982476
1190.06814 0.980571
1190.15694 0.968304
1190.24574 0.946126
1190.33456 0.949284
1190.42338 0.971857
1190.51221 0.980486
1190.60104 0.976333
1190.68988 0.971529
1190.77873 0.962217
1190.86758 0.953653
1190.95644 0.958791
1191.04531 0.962073
1191.13419 0.96488
1191.22307 0.971536
1191.31195 0.971683
1191.40085 0.97745
1191.48975 0.983946
1191.57866 0.985503
1191.66757 0.982234
1191.75649 0.964836
1191.84542 0.944903
1191.93435 0.958746
1192.02329 0.975623
1192.11224 0.981572
1192.20119 0.984645
1192.29015 0.985856
1192.37912 0.985583
1192.46809 0.983033
1192.55707 0.979069
1192.64606 0.979143
1192.73505 0.977196
1192.82405 0.974171
1192.91306 0.980449
1193.00207 0.984945
1193.09109 0.98292
1193.18012 0.978435
1193.26915 0.975126
1193.35819 0.950656
1193.44724 0.906555
1193.53629 0.912516
1193.62535 0.9503
1193.71442 0.969198
1193.80349 0.979809
1193.89257 0.985251
1193.98166 0.985985
1194.07075 0.985042
1194.15985 0.983923
1194.24896 0.984087
1194.33807 0.978537
1194.42719 0.968895
1194.51632 0.96905
1194.60545 0.97178
1194.69459 0.977272
1194.78374 0.982865
1194.87289 0.98321
1194.96205 0.973256
1195.05122 0.953017
1195.14039 0.950401
1195.22957 0.970029
1195.31875 0.981761
1195.40795 0.977507
1195.49715 0.959188
1195.58635 0.948048
1195.67557 0.96016
1195.76479 0.961924
1195.85401 0.963755
1195.94324 0.97643
1196.03248 0.982593
1196.12173 0.982031
1196.21098 0.976941
1196.30024 0.962851
1196.38951 0.955855
1196.47878 0.966693
1196.56806 0.978323
1196.65735 0.983897
1196.74664 0.984892
1196.83594 0.981519
1196.92525 0.976902
1197.01456 0.979778
1197.10388 0.983579
1197.1932 0.982118
1197.28254 0.978502
1197.37188 0.977683
1197.46122 0.962012
1197.55057 0.922374
1197.63993 0.912604
1197.7293 0.954317
1197.81867 0.981229
1197.90805 0.985684
1197.99744 0.985979
1198.08683 0.985032
1198.17623 0.983688
1198.26564 0.984188
1198.35505 0.982674
1198.44447 0.972996
1198.5339 0.96055
1198.62333 0.960597
1198.71277 0.936693
1198.80221 0.900623
1198.89167 0.925948
1198.98113 0.945825
1199.07059 0.945788
1199.16007 0.928365
1199.24955 0.937092
1199.33903 0.96841
1199.42852 0.983575
1199.51802 0.984048
1199.60753 0.97251
1199.69704 0.95788
1199.78656 0.968471
1199.87609 0.981809
1199.96562 0.983468
1200.05516 0.971212
1200.14471 0.956235
1200.23426 0.968228
1200.32382 0.978559
1200.41339 0.973771
1200.50296 0.971065
1200.59254 0.978502
1200.68213 0.9785
1200.77172 0.958654
1200.86132 0.940497
1200.95093 0.961785
1201.04054 0.978428
1201.13016 0.979419
1201.21979 0.972203
1201.30942 0.958009
1201.39906 0.960048
1201.4887 0.972586
1201.57836 0.981138
1201.66802 0.977045
1201.75768 0.939532
1201.84736 0.8909
1201.93704 0.91825
1202.02673 0.96627
1202.11642 0.983598
1202.20612 0.986035
1202.29583 0.986195
1202.38554 0.985527
1202.47526 0.982943
1202.56499 0.973473
1202.65472 0.96301
1202.74446 0.971814
1202.83421 0.981471
1202.92396 0.980659
1203.01372 0.9749
1203.10349 0.974847
1203.19326 0.977747
1203.28304 0.967457
1203.37283 0.952252
1203.46262 0.955128
1203.55242 0.953169
1203.64223 0.904499
1203.73205 0.813459
1203.82187 0.805034
1203.91169 0.882399
1204.00153 0.922966
1204.09137 0.945387
1204.18122 0.961232
1204.27107 0.966584
1204.36093 0.96306
1204.4508 0.966054
1204.54067 0.973121
1204.63055 0.973328
1204.72044 0.975097
1204.81034 0.973482
1204.90024 0.965593
1204.99015 0.920091
1205.08006 0.877443
1205.16998 0.92684
1205.25991 0.972355
1205.34984 0.98041
1205.43979 0.980948
1205.52973 0.980062
1205.61969 0.982474
1205.70965 0.985189
1205.79962 0.984687
1205.88959 0.981414
1205.97957 0.979492
1206.06956 0.980148
1206.15956 0.979927
1206.24956 0.981952
1206.33957 0.978167
1206.42958 0.959151
1206.51961 0.944875
1206.60963 0.961396
1206.69967 0.973633
1206.78971 0.979634
1206.87976 0.9766
1206.96982 0.958651
1207.05988 0.947998
1207.14995 0.960703
1207.24002 0.965904
1207.33011 0.957469
1207.4202 0.938297
1207.51029 0.949602
1207.60039 0.973559
1207.6905 0.982884
1207.78062 0.979986
1207.87074 0.975015
1207.96087 0.975486
1208.05101 0.953095
1208.14115 0.919152
1208.2313 0.93955
1208.32146 0.97176
1208.41162 0.975323
1208.50179 0.967522
1208.59197 0.97451
1208.68215 0.980975
1208.77234 0.979888
1208.86254 0.977291
1208.95274 0.976295
1209.04295 0.947461
1209.13317 0.905967
1209.22339 0.930593
1209.31362 0.968304
1209.40386 0.979131
1209.4941 0.979144
1209.58435 0.978925
1209.67461 0.982574
1209.76487 0.981127
1209.85515 0.957197
1209.94542 0.926384
1210.03571 0.946703
1210.126 0.975356
1210.2163 0.982313
1210.3066 0.981339
1210.39691 0.983224
1210.48723 0.98465
1210.57756 0.984025
1210.66789 0.982627
1210.75822 0.984071
1210.84857 0.985201
1210.93892 0.982497
1211.02928 0.97712
1211.11965 0.974962
1211.21002 0.962518
1211.3004 0.924886
1211.39078 0.908209
1211.48117 0.948676
1211.57157 0.973945
1211.66198 0.974237
1211.75239 0.975779
1211.84281 0.970526
1211.93324 0.962344
1212.02367 0.97277
1212.11411 0.980593
1212.20455 0.972512
1212.29501 0.953393
1212.38547 0.946791
1212.47593 0.965165
1212.56641 0.976805
1212.65689 0.978532
1212.74737 0.981069
1212.83787 0.983033
1212.92837 0.98086
1213.01887 0.975758
1213.10939 0.976652
1213.19991 0.981571
1213.29043 0.983478
1213.38097 0.984897
1213.47151 0.98591
1213.56206 0.98577
1213.65261 0.983197
1213.74317 0.976643
1213.83374 0.968797
1213.92431 0.96475
1214.01489 0.964354
1214.10548 0.959566
1214.19608 0.963855
1214.28668 0.968936
1214.37729 0.964317
1214.4679 0.968247
1214.55852 0.972249
1214.64915 0.97597
1214.73979 0.974889
1214.83043 0.95722
1214.92108 0.945029
1215.01173 0.965354
1215.1024 0.978032
1215.19307 0.976592
1215.28374 0.978721
1215.37442 0.970124
1215.46511 0.957258
1215.55581 0.970699
1215.64651 0.983383
1215.73722 0.985776
1215.82794 0.986026
1215.91866 0.986114
1216.00939 0.986022
1216.10013 0.985055
1216.19087 0.982022
1216.28162 0.977865
1216.37238 0.975716
1216.46314 0.977099
1216.55392 0.979457
1216.64469 0.97708
1216.73548 0.968523
1216.82627 0.955969
1216.91707 0.962866
1217.00787 0.975476
1217.09868 0.982729
1217.1895 0.985421
1217.28032 0.985909
1217.37116 0.98602
1217.46199 0.986069
1217.55284 0.986
1217.64369 0.985523
1217.73455 0.983917
1217.82542 0.976386
1217.91629 0.966165
1218.00717 0.968173
1218.09805 0.967442
1218.18895 0.968504
1218.27985 0.972991
1218.37075 0.975488
1218.46166 0.975278
1218.55258 0.974159
1218.64351 0.974166
1218.73444 0.975383
1218.82538 0.971866
1218.91633 0.964668
1219.00729 0.964091
1219.09825 0.963507
1219.18921 0.96601
1219.28019 0.967765
1219.37117 0.962533
1219.46216 0.969639
1219.55315 0.976319
1219.64415 0.978133
1219.73516 0.977979
1219.82617 0.9754
1219.9172 0.972742
1220.00822 0.977369
1220.09926 0.979513
1220.1903 0.976713
1220.28135 0.967509
1220.37241 0.965359
1220.46347 0.976406
1220.55454 0.982871
1220.64561 0.983182
1220.7367 0.983436
1220.82779 0.983681
1220.91888 0.984463
1221.00998 0.983805
1221.10109 0.982305
1221.19221 0.983092
1221.28334 0.979273
1221.37447 0.969618
1221.4656 0.965507
1221.55675 0.966716
1221.6479 0.964688
1221.73905 0.956139
1221.83022 0.956621
1221.92139 0.96921
1222.01257 0.980248
1222.10375 0.981161
1222.19494 0.97823
1222.28614 0.981289
1222.37735 0.980993
1222.46856 0.975221
1222.55978 0.965132
1222.651 0.953256
1222.74224 0.965019
1222.83348 0.97694
1222.92472 0.981343
1223.01598 0.977736
1223.10723 0.972094
1223.1985 0.978531
1223.28977 0.983587
1223.38105 0.980752
1223.47234 0.972727
1223.56363 0.966988
1223.65494 0.963718
1223.74624 0.961354
1223.83756 0.97279
1223.92888 0.982293
1224.02021 0.982343
1224.11154 0.979166
1224.20288 0.977118
1224.29423 0.974308
1224.38558 0.974778
1224.47695 0.97341
1224.56832 0.978717
1224.65969 0.983696
1224.75107 0.98333
1224.84246 0.981334
1224.93386 0.981161
1225.02526 0.980058
1225.11667 0.980422
1225.20809 0.979642
1225.29951 0.974921
1225.39094 0.970856
1225.48238 0.974365
1225.57382 0.980224
1225.66527 0.982174
1225.75673 0.983828
1225.84819 0.984491
1225.93966 0.981716
1226.03114 0.97694
1226.12263 0.977292
1226.21412 0.980987
1226.30562 0.983729
1226.39712 0.983966
1226.48863 0.982761
1226.58015 0.980141
1226.67168 0.976222
1226.76321 0.977842
1226.85475 0.97922
1226.94629 0.96808
1227.03785 0.953198
1227.12941 0.965423
1227.22097 0.977443
1227.31255 0.977618
1227.40413 0.97871
1227.49571 0.979847
1227.58731 0.979536
1227.67891 0.981719
1227.77052 0.98255
1227.86213 0.981226
1227.95375 0.980477
1228.04538 0.982387
1228.13702 0.983805
1228.22866 0.983876
1228.32031 0.98343
1228.41196 0.982881
1228.50362 0.983651
1228.59529 0.984117
1228.68697 0.983178
1228.77865 0.980961
1228.87034 0.978299
1228.96204 0.977838
1229.05374 0.981556
1229.14545 0.983877
1229.23717 0.984188
1229.32889 0.983055
1229.42062 0.976703
1229.51236 0.969477
1229.6041 0.975518
1229.69586 0.982331
1229.78761 0.98406
1229.87938 0.983945
1229.97115 0.981851
1230.06293 0.978545
1230.15471 0.979219
1230.24651 0.981735
1230.33831 0.982479
1230.43011 0.98336
1230.52192 0.984025
1230.61374 0.984057
1230.70557 0.98394
1230.7974 0.983427
1230.88924 0.982685
1230.98109 0.983271
1231.07295 0.983726
1231.16481 0.982792
1231.25667 0.981744
1231.34855 0.98268
1231.44043 0.983469
1231.53232 0.983696
1231.62421 0.983378
1231.71612 0.981712
1231.80802 0.980374
1231.89994 0.982227
1231.99186 0.983701
1232.08379 0.983968
1232.17573 0.983953
1232.26767 0.983939
1232.35962 0.983895
1232.45158 0.983622
1232.54354 0.981994
1232.63551 0.979735
1232.72749 0.978985
1232.81947 0.978388
1232.91147 0.980798
1233.00346 0.981588
1233.09547 0.980069
1233.18748 0.980141
1233.2795 0.978075
1233.37152 0.974693
1233.46356 0.978238
1233.5556 0.982212
1233.64764 0.983409
1233.73969 0.983629
1233.83175 0.983548
1233.92382 0.983445
1234.0159 0.983392
1234.10798 0.983397
1234.20006 0.983377
1234.29216 0.983342
1234.38426 0.983107
1234.47637 0.982789
1234.56848 0.982917
1234.6606 0.983163
1234.75273 0.983062
1234.84487 0.98275
1234.93701 0.982887
1235.02916 0.982689
1235.12131 0.982108
1235.21348 0.982251
1235.30565 0.982426
1235.39782 0.982432
1235.49001 0.982174
1235.5822 0.982659
1235.67439 0.982935
1235.7666 0.982642
1235.85881 0.98253
1235.95103 0.982944
1236.04325 0.983211
1236.13548 0.983221
1236.22772 0.983201
1236.31997 0.983189
1236.41222 0.983158
1236.50448 0.982876
1236.59675 0.981124
1236.68902 0.978863
1236.7813 0.980264
1236.87359 0.981653
1236.96588 0.981505
1237.05818 0.981943
1237.15049 0.982038
1237.2428 0.982172
1237.33512 0.982657
1237.42745 0.982871
1237.51979 0.982817
1237.61213 0.982752
1237.70448 0.982678
1237.79683 0.982516
1237.88919 0.982469
1237.98156 0.98232
1238.07394 0.982048
1238.16632 0.982267
1238.25871 0.982568
1238.35111 0.982627
1238.44351 0.982451
1238.53593 0.981805
1238.62834 0.981241
1238.72077 0.981863
1238.8132 0.982369
1238.90564 0.982518
1238.99808 0.98256
1239.09054 0.982488
1239.18299 0.9824
1239.27546 0.982436
1239.36793 0.982455
1239.46041 0.982384
1239.5529 0.9823
1239.64539 0.982332
1239.73789 0.982343
1239.8304 0.982262
1239.92292 0.982149
1240.01544 0.98214
1240.10797 0.982158
1240.2005 0.982108
1240.29304 0.981991
1240.38559 0.981675
1240.47815 0.981173
1240.57071 0.980583
1240.66328 0.979826
1240.75586 0.980864
1240.84844 0.981669
1240.94103 0.981191
1241.03363 0.980528
1241.12623 0.981141
1241.21884 0.981718
1241.31146 0.981786
1241.40408 0.981776
1241.49672 0.981706
1241.58935 0.981646
1241.682 0.981676
1241.77465 0.98158
1241.86731 0.981414
1241.95998 0.981479
1242.05265 0.981569
1242.14533 0.981566
1242.23802 0.981537
1242.33071 0.981479
1242.42341 0.981402
1242.51612 0.981286
1242.60884 0.981168
1242.70156 0.981221
1242.79429 0.981258
1242.88702 0.981242
1242.97976 0.981224
1243.07251 0.981195
1243.16527 0.981157
1243.25803 0.981117
1243.3508 0.981082
1243.44358 0.981059
1243.53636 0.981035
1243.62915 0.980999
1243.72195 0.980904
1243.81476 0.980644
1243.90757 0.980446
1244.00039 0.980675
1244.09321 0.9808
1244.18604 0.980441
1244.27888 0.979913
1244.37173 0.980136
1244.46458 0.980554
1244.55744 0.980676
1244.65031 0.980658
1244.74318 0.980609
1244.83607 0.980557
1244.92895 0.980521
1245.02185 0.980478
1245.11475 0.98036
1245.20766 0.979839
1245.30057 0.979256
1245.3935 0.979737
1245.48643 0.980161
1245.57936 0.980184
1245.6723 0.980143
1245.76526 0.980101
1245.85821 0.980062
1245.95118 0.980025
1246.04415 0.979981
1246.13713 0.979894
1246.23011 0.979795
1246.3231 0.979801
1246.4161 0.979795
1246.50911 0.979594
1246.60212 0.978464
1246.69514 0.977199
1246.78817 0.978381
1246.8812 0.979399
1246.97424 0.979465
1247.06729 0.979442
1247.16034 0.979414
1247.2534 0.979356
1247.34647 0.979272
1247.43955 0.979164
1247.53263 0.979112
1247.62572 0.979128
1247.71881 0.979102
1247.81192 0.979022
1247.90503 0.978749
1247.99814 0.977002
1248.09127 0.974015
1248.1844 0.974269
1248.27753 0.977014
1248.37068 0.978417
1248.46383 0.978583
1248.55699 0.978517
1248.65015 0.978402
1248.74333 0.9783
1248.83651 0.978307
1248.92969 0.978287
1249.02289 0.978235
1249.11609 0.978179
1249.20929 0.978121
1249.30251 0.978046
1249.39573 0.977465
1249.48896 0.973717
1249.58219 0.969317
1249.67543 0.973204
1249.76868 0.976992
1249.86194 0.977619
1249.9552 0.977563
1250.04847 0.977423
1250.14175 0.97732
1250.23503 0.977289
1250.32832 0.977257
1250.42162 0.977184
1250.51492 0.977087
1250.60824 0.976956
1250.70155 0.976826
1250.79488 0.976783
1250.88821 0.975935
1250.98155 0.9697
1251.0749 0.962102
1251.16825 0.968256
1251.26161 0.974908
1251.35498 0.976306
1251.44835 0.976344
1251.54173 0.976243
1251.63512 0.976078
1251.72852 0.97576
1251.82192 0.975523
1251.91533 0.975666
1252.00875 0.975749
1252.10217 0.975681
1252.1956 0.975595
1252.28904 0.975526
1252.38248 0.975355
1252.47593 0.973536
1252.56939 0.962848
1252.66285 0.951324
1252.75632 0.96308
1252.8498 0.973307
1252.94329 0.974739
1253.03678 0.974741
1253.13028 0.974653
1253.22379 0.974536
1253.3173 0.974411
1253.41082 0.97431
1253.50435 0.974209
1253.59789 0.974027
1253.69143 0.973775
1253.78498 0.973693
1253.87853 0.973706
1253.97209 0.972672
1254.06566 0.964868
1254.15924 0.948543
1254.25282 0.945526
1254.34641 0.961898
1254.44001 0.971582
1254.53362 0.972828
1254.62723 0.972798
1254.72085 0.972659
1254.81447 0.972498
1254.9081 0.972397
1255.00174 0.972326
1255.09539 0.972203
1255.18904 0.97205
1255.2827 0.971891
1255.37637 0.971466
1255.47004 0.970954
1255.56373 0.970668
1255.65741 0.965886
1255.75111 0.945089
1255.84481 0.927118
1255.93852 0.94968
1256.03224 0.968058
1256.12596 0.970581
1256.21969 0.970293
1256.31343 0.969938
1256.40717 0.970048
1256.50092 0.970058
1256.59468 0.969849
1256.68845 0.969714
1256.78222 0.969652
1256.876 0.969464
1256.96978 0.969075
1257.06358 0.96875
1257.15738 0.968576
1257.25118 0.964758
1257.345 0.939473
1257.43882 0.911103
1257.53265 0.938621
1257.62648 0.96325
1257.72033 0.967207
1257.81418 0.967109
1257.90803 0.966494
1258.00189 0.965846
1258.09576 0.965142
1258.18964 0.965978
1258.28353 0.966498
1258.37742 0.965536
1258.47132 0.964057
1258.56522 0.963024
1258.65913 0.961718
1258.75305 0.963652
1258.84698 0.964119
1258.94091 0.955592
1259.03485 0.923714
1259.1288 0.894979
1259.22275 0.925431
1259.31672 0.956263
1259.41068 0.962512
1259.50466 0.959065
1259.59864 0.954624
1259.69263 0.955928
1259.78663 0.952761
1259.88063 0.951152
1259.97464 0.956842
1260.06866 0.954036
1260.16268 0.946353
1260.25671 0.952323
1260.35075 0.94928
1260.4448 0.938402
1260.53885 0.947761
1260.63291 0.94923
1260.72698 0.908468
1260.82105 0.867475
1260.91513 0.912206
1261.00922 0.936428
1261.10331 0.924322
1261.19742 0.940171
1261.29152 0.95302
1261.38564 0.93816
1261.47976 0.918609
1261.57389 0.937391
1261.66803 0.948463
1261.76217 0.928557
1261.85632 0.911452
1261.95048 0.932229
1262.04465 0.92757
1262.13882 0.90277
1262.233 0.927603
1262.32718 0.94299
1262.42138 0.890586
1262.51558 0.825178
1262.60978 0.884372
1262.704 0.93734
1262.79822 0.917276
1262.89245 0.88539
1262.98668 0.919552
1263.08092 0.9446
1263.17517 0.916493
1263.26943 0.879483
1263.36369 0.912999
1263.45796 0.936295
1263.55224 0.903976
1263.64652 0.872764
1263.74082 0.91411
1263.83511 0.943044
1263.92942 0.917661
1264.02373 0.876474
1264.11805 0.892174
1264.21238 0.890417
1264.30671 0.830018
1264.40105 0.822423
1264.4954 0.89935
1264.58976 0.944683
1264.68412 0.94437
1264.77849 0.905686
1264.87286 0.864336
1264.96724 0.901327
1265.06163 0.89776
1265.15603 0.85213
1265.25044 0.891065
1265.34485 0.937795
1265.43926 0.948652
1265.53369 0.940833
1265.62812 0.903605
1265.72256 0.870115
1265.81701 0.903104
1265.91146 0.884411
1266.00592 0.809749
1266.10039 0.833066
1266.19486 0.911262
1266.28935 0.944985
1266.38383 0.942399
1266.47833 0.910972
1266.57283 0.880848
1266.66734 0.908589
1266.76186 0.891936
1266.85638 0.845402
1266.95091 0.895381
1267.04545 0.940708
1267.14 0.94825
1267.23455 0.946974
1267.32911 0.930154
1267.42367 0.909537
1267.51825 0.921897
1267.61283 0.9025
1267.70742 0.857848
1267.80201 0.890836
1267.89661 0.935847
1267.99122 0.948973
1268.08584 0.949578
1268.18046 0.939018
1268.27509 0.873868
1268.36972 0.761312
1268.46437 0.735465
1268.55902 0.734839
1268.65368 0.660592
1268.74834 0.617511
1268.84301 0.635753
1268.93769 0.659702
1269.03238 0.726765
1269.12707 0.784122
1269.22177 0.799004
1269.31648 0.823333
1269.4112 0.840868
1269.50592 0.862771
1269.60065 0.851521
1269.69538 0.865321
1269.79012 0.891938
1269.88487 0.899715
1269.97963 0.915758
1270.0744 0.912388
1270.16917 0.920329
1270.26394 0.941389
1270.35873 0.943799
1270.45352 0.937538
1270.54832 0.935931
1270.64313 0.908338
1270.73794 0.886246
1270.83276 0.920476
1270.92759 0.92903
1271.02242 0.909439
1271.11727 0.930116
1271.21211 0.95033
1271.30697 0.953182
1271.40183 0.955466
1271.4967 0.952441
1271.59158 0.921331
1271.68647 0.884246
1271.78136 0.917867
1271.87626 0.944349
1271.97116 0.924792
1272.06607 0.906702
1272.16099 0.935567
1272.25592 0.957414
1272.35085 0.960052
1272.44579 0.95237
1272.54074 0.93871
1272.6357 0.914824
1272.73066 0.885012
1272.82563 0.919172
1272.92061 0.929983
1273.01559 0.905734
1273.11058 0.927059
1273.20558 0.955514
1273.30058 0.963838
1273.39559 0.965084
1273.49061 0.965054
1273.58564 0.960032
1273.68067 0.929383
1273.77571 0.895432
1273.87076 0.927054
1273.96581 0.944396
1274.06087 0.92228
1274.15594 0.920675
1274.25102 0.947274
1274.3461 0.950188
1274.44119 0.937159
1274.53629 0.95175
1274.63139 0.964607
1274.7265 0.957841
1274.82162 0.930635
1274.91675 0.91498
1275.01188 0.940567
1275.10702 0.939273
1275.20217 0.918213
1275.29732 0.943975
1275.39248 0.966379
1275.48765 0.969897
1275.58282 0.970229
1275.678 0.970261
1275.77319 0.967574
1275.86839 0.947808
1275.96359 0.924476
1276.0588 0.944547
1276.15402 0.955927
1276.24925 0.938417
1276.34448 0.921919
1276.43972 0.925276
1276.53496 0.953588
1276.63022 0.970033
1276.72548 0.972363
1276.82074 0.972459
1276.91602 0.969449
1277.0113 0.950826
1277.10659 0.93055
1277.20188 0.949515
1277.29719 0.956479
1277.3925 0.945051
1277.48781 0.957259
1277.58314 0.970778
1277.67847 0.974023
1277.77381 0.97449
1277.86915 0.974695
1277.96451 0.974847
1278.05987 0.974007
1278.15523 0.966548
1278.25061 0.952629
1278.34599 0.941813
1278.44138 0.935036
1278.53677 0.946813
1278.63218 0.956029
1278.72758 0.967948
1278.823 0.975213
1278.91843 0.976223
1279.01386 0.976191
1279.10929 0.975844
1279.20474 0.973068
1279.30019 0.969011
1279.39565 0.96639
1279.49112 0.962721
1279.58659 0.968414
1279.68207 0.968011
1279.77756 0.963295
1279.87306 0.968402
1279.96856 0.973166
1280.06407 0.97621
1280.15958 0.977717
1280.25511 0.975928
1280.35064 0.963427
1280.44618 0.949828
1280.54172 0.963291
1280.63727 0.971961
1280.73283 0.968215
1280.8284 0.968241
1280.92397 0.97143
1281.01955 0.97189
1281.11514 0.975963
1281.21074 0.978883
1281.30634 0.979186
1281.40195 0.979318
1281.49756 0.979553
1281.59319 0.979863
1281.68882 0.980061
1281.78445 0.979857
1281.8801 0.978149
1281.97575 0.976023
1282.07141 0.977314
1282.16708 0.977999
1282.26275 0.975743
1282.35843 0.967927
1282.45412 0.958245
1282.54981 0.969014
1282.64552 0.97909
1282.74122 0.980922
1282.83694 0.981118
1282.93266 0.981088
1283.02839 0.98032
1283.12413 0.978485
1283.21988 0.977895
1283.31563 0.979659
1283.41139 0.980325
1283.50715 0.97991
1283.60293 0.980642
1283.69871 0.981179
1283.7945 0.98162
1283.89029 0.981944
1283.98609 0.981865
1284.0819 0.980648
1284.17772 0.979234
1284.27354 0.98058
1284.36937 0.980685
1284.46521 0.972981
1284.56105 0.962692
1284.65691 0.968932
1284.75277 0.978576
1284.84863 0.981529
1284.94451 0.982031
1285.04039 0.981787
1285.13627 0.981755
1285.23217 0.98251
1285.32807 0.983004
1285.42398 0.983119
1285.5199 0.983159
1285.61582 0.983144
1285.71175 0.983023
1285.80769 0.982922
1285.90363 0.983034
1285.99959 0.983203
1286.09555 0.983028
1286.19151 0.982846
1286.28749 0.98299
1286.38347 0.982828
1286.47946 0.982207
1286.57545 0.977839
1286.67145 0.972307
1286.76746 0.977166
1286.86348 0.982137
1286.9595 0.98308
1287.05553 0.982959
1287.15157 0.980124
1287.24762 0.976329
1287.34367 0.97897
1287.43973 0.982797
1287.5358 0.984024
1287.63187 0.984255
1287.72795 0.984325
1287.82404 0.984294
1287.92014 0.983809
1288.01624 0.981802
1288.11235 0.976182
1288.20846 0.970039
1288.30459 0.973333
1288.40072 0.980048
1288.49686 0.982254
1288.593 0.982228
1288.68916 0.979352
1288.78532 0.968919
1288.88148 0.962415
1288.97766 0.971845
1289.07384 0.979143
1289.17003 0.981879
1289.26623 0.98089
1289.36243 0.978882
1289.45864 0.981875
1289.55486 0.984383
1289.65108 0.98478
1289.74731 0.984817
1289.84355 0.984422
1289.9398 0.982255
1290.03605 0.979701
1290.13231 0.981709
1290.22858 0.982352
1290.32485 0.981542
1290.42114 0.982978
1290.51743 0.984031
1290.61372 0.984362
1290.71003 0.984946
1290.80634 0.984855
1290.90266 0.983051
1290.99898 0.981305
1291.09531 0.983014
1291.19165 0.984784
1291.288 0.985037
1291.38435 0.9852
1291.48071 0.984654
1291.57708 0.981293
1291.67346 0.971143
1291.76984 0.962779
1291.86623 0.97273
1291.96263 0.978178
1292.05903 0.975605
1292.15544 0.97886
1292.25186 0.980951
1292.34829 0.982331
1292.44472 0.983451
1292.54116 0.979055
1292.63761 0.97266
1292.73406 0.977165
1292.83053 0.983246
1292.927 0.983757
1293.02347 0.982557
1293.11996 0.983507
1293.21645 0.98433
1293.31294 0.985371
1293.40945 0.985991
1293.50596 0.986169
1293.60248 0.985981
1293.69901 0.98442
1293.79554 0.980834
1293.89208 0.978181
1293.98863 0.979114
1294.08519 0.980157
1294.18175 0.98183
1294.27832 0.984472
1294.3749 0.985957
1294.47148 0.98556
1294.56807 0.98373
1294.66467 0.982389
1294.76128 0.981897
1294.85789 0.979979
1294.95451 0.978766
1295.05114 0.981794
1295.14777 0.984119
1295.24441 0.985176
1295.34106 0.983509
1295.43772 0.974933
1295.53438 0.96475
1295.63105 0.962579
1295.72773 0.960306
1295.82442 0.969689
1295.92111 0.975766
1296.01781 0.981244
1296.11452 0.983252
1296.21123 0.981702
1296.30795 0.981867
1296.40468 0.980939
1296.50142 0.980955
1296.59816 0.978595
1296.69491 0.975774
1296.79167 0.976222
1296.88843 0.976805
1296.9852 0.975165
1297.08198 0.978802
1297.17877 0.967792
1297.27556 0.943555
1297.37236 0.94086
1297.46917 0.951646
1297.56599 0.972648
1297.66281 0.983947
1297.75964 0.984657
1297.85648 0.9794
1297.95332 0.974278
1298.05017 0.980132
1298.14703 0.982441
1298.2439 0.97941
1298.34077 0.982145
1298.43765 0.985364
1298.53454 0.985845
1298.63143 0.986507
1298.72833 0.987138
1298.82524 0.9873
1298.92216 0.987289
1299.01908 0.987186
1299.11601 0.986731
1299.21295 0.985753
1299.3099 0.981344
1299.40685 0.960205
1299.50381 0.939491
1299.60078 0.958526
1299.69775 0.966935
1299.79473 0.963022
1299.89172 0.975838
1299.98872 0.984416
1300.08572 0.98542
1300.18273 0.985738
1300.27975 0.980182
1300.37677 0.956078
1300.47381 0.933703
1300.57084 0.947727
1300.66789 0.955791
1300.76495 0.971001
1300.86201 0.978088
1300.95907 0.95591
1301.05615 0.927525
1301.15323 0.951142
1301.25032 0.977303
1301.34742 0.982995
1301.44453 0.984713
1301.54164 0.98655
1301.63876 0.986807
1301.73588 0.986072
1301.83302 0.98611
1301.93016 0.986415
1302.02731 0.986793
1302.12446 0.985108
1302.22162 0.973551
1302.31879 0.96105
1302.41597 0.973618
1302.51315 0.984953
1302.61035 0.982949
1302.70755 0.959234
1302.80475 0.932467
1302.90196 0.957227
1302.99919 0.981953
1303.09641 0.986874
1303.19365 0.98647
1303.29089 0.980418
1303.38814 0.947112
1303.4854 0.90988
1303.58266 0.946557
1303.67993 0.980696
1303.77721 0.985535
1303.8745 0.97758
1303.97179 0.953421
1304.06909 0.930437
1304.1664 0.900542
1304.26371 0.854957
1304.36104 0.892364
1304.45837 0.923659
1304.5557 0.950043
1304.65305 0.97667
1304.7504 0.985821
1304.84776 0.984968
1304.94512 0.982555
1305.04249 0.984849
1305.13987 0.987138
1305.23726 0.987372
1305.33466 0.985092
1305.43206 0.971127
1305.52947 0.951908
1305.62689 0.960483
1305.72431 0.97677
1305.82174 0.980131
1305.91918 0.981441
1306.01662 0.98539
1306.11408 0.987315
1306.21154 0.987175
1306.30901 0.985012
1306.40648 0.972784
1306.50396 0.928941
1306.60145 0.861672
1306.69895 0.855783
1306.79645 0.916778
1306.89396 0.945066
1306.99148 0.961983
1307.08901 0.954401
1307.18654 0.931661
1307.28408 0.953497
1307.38163 0.978092
1307.47918 0.984374
1307.57675 0.986299
1307.67432 0.98701
1307.77189 0.986669
1307.86948 0.980753
1307.96707 0.941822
1308.06467 0.865532
1308.16227 0.855617
1308.25988 0.932706
1308.35751 0.978992
1308.45513 0.985063
1308.55277 0.983662
1308.65041 0.981504
1308.74806 0.977834
1308.84572 0.979407
1308.94338 0.977776
1309.04105 0.973401
1309.13873 0.976789
1309.23642 0.980772
1309.33411 0.983935
1309.43181 0.980089
1309.52952 0.944728
1309.62723 0.871786
1309.72496 0.851534
1309.82269 0.897759
1309.92042 0.903032
1310.01817 0.922714
1310.11592 0.963172
1310.21368 0.97896
1310.31144 0.972357
1310.40922 0.919152
1310.507 0.847666
1310.60479 0.879836
1310.70258 0.932841
1310.80038 0.961676
1310.89819 0.96744
1310.99601 0.966675
1311.09384 0.964845
1311.19167 0.975904
1311.28951 0.984009
1311.38735 0.986139
1311.48521 0.986976
1311.58307 0.98739
1311.68094 0.987749
1311.77881 0.987699
1311.8767 0.986669
1311.97459 0.983876
1312.07248 0.970552
1312.17039 0.924645
1312.2683 0.887397
1312.36622 0.923173
1312.46415 0.951884
1312.56208 0.96877
1312.66002 0.979774
1312.75797 0.974288
1312.85593 0.931032
1312.95389 0.880485
1313.05186 0.920734
1313.14984 0.949917
1313.24782 0.943221
1313.34582 0.961589
1313.44382 0.96949
1313.54182 0.911754
1313.63984 0.779526
1313.73786 0.741175
1313.83589 0.874605
1313.93393 0.957564
1314.03197 0.962524
1314.13002 0.952244
1314.22808 0.931799
1314.32615 0.944454
1314.42422 0.953543
1314.5223 0.941373
1314.62039 0.949029
1314.71848 0.940857
1314.81658 0.897882
1314.91469 0.887532
1315.01281 0.93848
1315.11093 0.971671
1315.20907 0.969695
1315.30721 0.940442
1315.40535 0.913588
1315.50351 0.924662
1315.60167 0.908609
1315.69983 0.904771
1315.79801 0.941862
1315.89619 0.963225
1315.99438 0.97532
1316.09258 0.975645
1316.19079 0.967806
1316.289 0.975169
1316.38722 0.982504
1316.48544 0.983883
1316.58368 0.984372
1316.68192 0.981834
1316.78017 0.963729
1316.87842 0.876782
1316.97669 0.774595
1317.07496 0.843377
1317.17324 0.941631
1317.27152 0.973128
1317.36982 0.980936
1317.46812 0.984706
1317.56642 0.986024
1317.66474 0.985732
1317.76306 0.984964
1317.86139 0.981711
1317.95973 0.976857
1318.05807 0.976644
1318.15642 0.957357
1318.25478 0.887047
1318.35315 0.836313
1318.45152 0.897907
1318.5499 0.93798
1318.64829 0.942329
1318.74669 0.891301
1318.84509 0.833793
1318.9435 0.906036
1319.04192 0.969314
1319.14034 0.975188
1319.23877 0.939002
1319.33721 0.863874
1319.43566 0.839756
1319.53411 0.905843
1319.63258 0.964758
1319.73105 0.981351
1319.82952 0.977577
1319.92801 0.942137
1320.0265 0.816295
1320.12499 0.703758
1320.2235 0.810659
1320.32201 0.873451
1320.42053 0.852939
1320.51906 0.910877
1320.6176 0.967237
1320.71614 0.981404
1320.81469 0.980276
1320.91325 0.967974
1321.01181 0.951746
1321.11038 0.95932
1321.20896 0.96145
1321.30755 0.888392
1321.40614 0.795034
1321.50474 0.862747
1321.60335 0.950054
1321.70197 0.977431
1321.80059 0.983476
1321.89922 0.98302
1321.99786 0.968628
1322.09651 0.941152
1322.19516 0.937043
1322.29382 0.95241
1322.39249 0.935346
1322.49116 0.913477
1322.58985 0.935589
1322.68854 0.9533
1322.78723 0.918389
1322.88594 0.859803
1322.98465 0.852084
1323.08337 0.848647
1323.18209 0.78503
1323.28083 0.823193
1323.37957 0.906191
1323.47832 0.959672
1323.57707 0.976873
1323.67584 0.97437
1323.77461 0.971646
1323.87339 0.956665
1323.97217 0.864742
1324.07096 0.764742
1324.16976 0.830447
1324.26857 0.871106
1324.36739 0.894409
1324.46621 0.949657
1324.56504 0.977312
1324.66388 0.980058
1324.76272 0.983242
1324.86157 0.984954
1324.96043 0.982936
1325.0593 0.97966
1325.15817 0.97108
1325.25705 0.935306
1325.35594 0.894625
1325.45484 0.902852
1325.55374 0.901021
1325.65265 0.934222
1325.75157 0.962708
1325.8505 0.949734
1325.94943 0.93941
1326.04837 0.964245
1326.14732 0.977268
1326.24627 0.952819
1326.34524 0.915397
1326.44421 0.92917
1326.54318 0.961774
1326.64217 0.976378
1326.74116 0.972691
1326.84016 0.920869
1326.93917 0.841287
1327.03818 0.83089
1327.1372 0.839906
1327.23623 0.897449
1327.33527 0.950537
1327.43431 0.956946
1327.53336 0.958286
1327.63242 0.964862
1327.73149 0.922877
1327.83056 0.864511
1327.92964 0.909776
1328.02873 0.960249
1328.12782 0.956253
1328.22693 0.871582
1328.32604 0.736192
1328.42515 0.760208
1328.52428 0.882241
1328.62341 0.919884
1328.72255 0.819027
1328.8217 0.721346
1328.92085 0.832252
1329.02002 0.917803
1329.11919 0.833399
1329.21836 0.710132
1329.31755 0.801401
1329.41674 0.911867
1329.51594 0.941146
1329.61514 0.947557
1329.71436 0.949134
1329.81358 0.957494
1329.91281 0.93973
1330.01204 0.870397
1330.11129 0.79084
1330.21054 0.781786
1330.3098 0.889188
1330.40906 0.953514
1330.50834 0.955884
1330.60762 0.922241
1330.7069 0.878847
1330.8062 0.858567
1330.9055 0.823984
1331.00481 0.851776
1331.10413 0.868421
1331.20346 0.75227
1331.30279 0.625218
1331.40213 0.684746
1331.50148 0.784577
1331.60083 0.85307
1331.70019 0.846477
1331.79956 0.78796
1331.89894 0.698767
1331.99832 0.716342
1332.09771 0.857482
1332.19711 0.941751
1332.29652 0.90968
1332.39593 0.741939
1332.49536 0.612373
1332.59478 0.762969
1332.69422 0.888622
1332.79366 0.929465
1332.89312 0.935808
1332.99257 0.88908
1333.09204 0.861588
1333.19151 0.919543
1333.29099 0.953935
1333.39048 0.943009
1333.48998 0.89309
1333.58948 0.772603
1333.68899 0.685163
1333.78851 0.697612
1333.88803 0.728305
1333.98757 0.744581
1334.08711 0.775562
1334.18665 0.864851
1334.28621 0.946681
1334.38577 0.974047
1334.48534 0.966416
1334.58492 0.938416
1334.6845 0.91008
1334.7841 0.855832
1334.8837 0.752394
1334.9833 0.771132
1335.08292 0.898055
1335.18254 0.962774
1335.28217 0.962646
1335.38181 0.945663
1335.48145 0.943717
1335.5811 0.959609
1335.68076 0.957891
1335.78043 0.897891
1335.8801 0.689805
1335.97978 0.464188
1336.07947 0.574967
1336.17917 0.795545
1336.27887 0.918747
1336.37858 0.957223
1336.4783 0.966576
1336.57803 0.972527
1336.67776 0.974578
1336.7775 0.962733
1336.87725 0.903195
1336.97701 0.808027
1337.07677 0.764048
1337.17654 0.776803
1337.27632 0.858937
1337.3761 0.802344
1337.4759 0.667878
1337.5757 0.76641
1337.6755 0.888617
1337.77532 0.897571
1337.87514 0.817974
1337.97497 0.679391
1338.07481 0.731001
1338.17466 0.883819
1338.27451 0.952819
1338.37437 0.969013
1338.47424 0.969841
1338.57411 0.938684
1338.67399 0.830332
1338.77388 0.74134
1338.87378 0.841947
1338.97369 0.937433
1339.0736 0.939253
1339.17352 0.830668
1339.27344 0.697628
1339.37338 0.792529
1339.47332 0.914998
1339.57327 0.960568
1339.67323 0.97229
1339.77319 0.972439
1339.87316 0.960229
1339.97314 0.904232
1340.07313 0.765281
1340.17312 0.601599
1340.27313 0.590709
1340.37313 0.673506
1340.47315 0.605579
1340.57318 0.623153
1340.67321 0.812844
1340.77325 0.93202
1340.87329 0.951426
1340.97335 0.948495
1341.07341 0.94468
1341.17348 0.917068
1341.27355 0.826689
1341.37364 0.742167
1341.47373 0.758225
1341.57383 0.711106
1341.67393 0.719009
1341.77405 0.833937
1341.87417 0.896967
1341.9743 0.919451
1342.07443 0.910809
1342.17458 0.925634
1342.27473 0.948595
1342.37489 0.963013
1342.47505 0.963643
1342.57523 0.922361
1342.67541 0.82071
1342.7756 0.770288
1342.87579 0.841533
1342.97599 0.876993
1343.07621 0.873708
1343.17642 0.836152
1343.27665 0.793234
1343.37688 0.88214
1343.47712 0.949316
1343.57737 0.949466
1343.67763 0.897581
1343.77789 0.743177
1343.87816 0.595256
1343.97844 0.54586
1344.07873 0.462959
1344.17902 0.552301
1344.27932 0.646484
1344.37963 0.656
1344.47994 0.542436
1344.58027 0.456217
1344.6806 0.537408
1344.78093 0.63385
1344.88128 0.706699
1344.98163 0.854661
1345.08199 0.935342
1345.18236 0.943676
1345.28274 0.917181
1345.38312 0.801418
1345.48351 0.618803
1345.58391 0.579196
1345.68431 0.665039
1345.78473 0.769601
1345.88515 0.718001
1345.98558 0.679885
1346.08601 0.801719
1346.18645 0.838319
1346.2869 0.800133
1346.38736 0.736221
1346.48783 0.511905
1346.5883 0.415958
1346.68878 0.636665
1346.78927 0.78786
1346.88976 0.799417
1346.99027 0.850202
1347.09078 0.862151
1347.1913 0.788788
1347.29182 0.752851
1347.39235 0.759796
1347.49289 0.649115
1347.59344 0.411124
1347.694 0.185938
1347.79456 0.128365
1347.89513 0.174975
1347.99571 0.312907
1348.09629 0.418949
1348.19689 0.571513
1348.29749 0.526332
1348.3981 0.271336
1348.49871 0.232103
1348.59933 0.484154
1348.69996 0.634282
1348.8006 0.513362
1348.90125 0.3767
1349.0019 0.46016
1349.10256 0.65046
1349.20323 0.631363
1349.30391 0.577787
1349.40459 0.740989
1349.50528 0.83903
1349.60598 0.828783
1349.70668 0.821502
1349.8074 0.679536
1349.90812 0.354735
